AF3,F7,F3,FC5,T7,P7,O1,O2,P8,T8,FC6,F4,F8,AF4
-11.23537437321274,-1.67096698499315,-5.735022050688677,-5.543674132162987,-3.7279704229203623,3.801010094525493,7.251811378366243,-0.5196612143366632,-3.341635813209193,-5.968116533257622,-2.640101767202549,-8.3826196953707,-5.812383354350995,-6.471823994545369
-7.823571327910291,-5.581835839548228,-6.48022314097364,-5.033444257508143,-0.3773191067718735,5.670308828998927,10.001790592361637,5.053609571732914,-0.8988400855377376,-2.420414960156782,0.1060256303939261,-9.37253957496698,-6.734920000703126,-6.167879599844492
-2.7476290294475034,-9.277240716423911,-5.157234594183033,-2.3365729721599493,1.9976376452758644,8.571777930215589,15.257259272699702,9.377745383141916,2.276278538817105,5.806761755971205,2.62181303148644,-5.496443655396007,-10.52398118386268,-4.134995031644706
0.0876650404184859,-10.513419717984313,-2.7606385867086094,1.1409543296629758,3.09944339934964,12.656357111924876,16.15227194683675,11.12486314598454,3.638171677508539,8.301711093317868,4.459899504890446,1.9721054281562649,-11.182571915872211,-0.5939275205218874
-0.4013465897306641,-8.71311071517354,-0.9360180791751844,3.183478101552724,3.052527510767168,16.530513639942345,11.685476571375052,10.775012343369989,2.107848695215898,5.0898227745713225,4.928885551380569,8.365098403342964,-6.4597134773389815,0.1971848741246792
-0.0973630080293649,-5.109885736958134,-0.4188094730737695,2.752733703891481,2.2426008864418803,18.29974058926919,7.250435970240098,9.746536704191346,-0.9612319507470196,1.0344230716459253,7.65606691402552,9.443848464775256,2.150348527048135,2.2223926408298587
-0.2004384324476003,-1.4049978893070092,-0.3054709559688531,1.0800509737227473,1.377431048016608,17.400507568387813,-1.7432545121029652,8.876054629616288,-3.274707482264944,-6.207854932017635,12.509812336832972,5.132746506563116,13.99284869552844,4.179719470089971
0.0180668620035626,1.622391920348477,1.0462470522095282,0.6576302508403087,1.3667058037420596,15.41902858099176,-6.3810593781573,7.704232958530545,-3.150907229894791,-7.22222999866293,12.251896856745542,-0.452291276565294,18.07929455558475,3.4444789211683142
1.0547462897311417,4.28681668455031,4.285216550837466,2.986696337437742,2.7509953930491107,14.920414319241448,-3.5431693707050287,5.221148078374382,-0.0734382656724715,-1.0096481586562474,7.048711603629756,-2.719788923589189,11.087911370047324,3.299333704604611
1.7340709403106034,6.990716034350041,8.164840075672608,7.182916430107671,5.050728020034091,17.154000778428795,-2.800116329900102,1.3212125971949948,3.528111016505148,2.719416434647493,2.189749124909929,-0.4980807414999351,5.927089423302585,4.772701857741769
2.367617860246676,9.18931131233151,10.375956545952178,10.69140708702849,6.790358782080665,20.654686996429646,2.1707519443728853,-2.4916429831200766,5.641405795000043,6.070511329459894,-3.7237182317524034,3.4456441684873527,0.5937776451221313,6.763747120809702
1.3927430687326188,9.405978721575968,9.374087974871625,11.331043086423952,6.4847951918034985,22.11805241497828,4.117860491824436,-3.9733580704155465,4.731486262796718,4.147193484735758,-6.081097958892971,5.353006640447182,-1.7323873686285722,7.583352841685659
-1.4808653186236136,6.347666021127227,5.5599201902256805,8.753303408520424,3.887691455295415,18.99274313416236,-0.0653870561059349,-1.9840549285468736,1.5656853635297476,-5.033789722078863,-3.7129533925299656,3.738069878109517,2.203677176498333,5.221372435583354
-4.83827110881828,0.1810234246373951,0.8533355578909685,4.216566725587576,0.3354466731794314,11.69750963302548,-0.3813725832691176,2.245120040722405,-1.498072604542071,-10.281177128649327,-7.221373579096932,-0.0039874229495704,-1.6432694030652826,-1.3148822932994602
-9.123764230874508,-7.09414324554286,-2.794577932713103,-0.677039311569805,-2.271179339193023,3.605772445850592,-4.234339111712414,5.614050329899412,-4.204028630846932,-12.851899670555404,-15.800663891067437,-3.58335960492793,-9.831703992213496,-10.650863310241132
-9.670329629000165,-12.518679604399797,-4.5795425159114505,-4.850135381571935,-2.992157691637098,-1.240435935373441,-5.884356044839112,5.21983913021313,-4.359986858365703,-12.078147933277352,-19.207208138317974,-5.887278127346115,-13.452474072398616,-14.65244863590896
-5.867109345256983,-13.740706548739276,-4.8841906128025325,-7.638022607735003,-2.449357032110947,-0.9031089544158316,-2.081557800636851,0.4988316129482468,-2.5839034283706237,-5.557498637862356,-18.849689415581555,-7.157913007656102,-12.6033521338166,-10.37165327021985
-2.150073428188216,-10.300642790515871,-4.513897100683945,-8.411911960263925,-1.940849694517608,3.2787422697924438,-2.071235543490852,-6.182437879435203,-2.332787071697131,-2.639687080531063,-13.385031415164356,-7.758311360387959,-3.985666060279196,-3.6300574553600695
2.6623287211780493,-3.898519348261868,-4.011924252992682,-6.8310188509932805,-2.018020683565727,7.840576100832587,1.629487493068852,-10.99530593491342,-1.6337575275261058,-2.7872553636721165,-0.5655995788775552,-7.421192229930714,9.279070527001393,5.571160852534527
4.903188981285897,2.4637528276884417,-3.504219712963999,-3.554814431168858,-2.0565269888097597,9.6143314924151,3.6392757313398745,-11.169226384559966,-0.7312777558773597,-2.0196851451226343,4.583774544088543,-5.847153800233468,15.50350453352075,10.266022456981007
3.6517098376485984,5.969492343913218,-2.8482624204001112,-0.3544952239157697,-1.3108464340834989,7.605549173756677,-0.7682114067747007,-6.79043943572265,-1.1483353230831834,-2.135016153043276,2.1107123850357965,-3.609366732464285,10.708095658039934,5.630424432481672
3.540757588378844,5.326335044820869,-1.75995625174439,0.9546452110878708,-0.2927230209122926,3.177277429376863,-2.11699987534747,-0.6298379977193438,0.8756671994055607,-0.6295891816593507,0.5078990461835917,-1.931507635565996,0.8769675324541715,1.3348631093477104
3.5469592320246472,1.3003510175800286,0.026731674687475,-0.0439766543423557,-0.8066822741090154,-1.2464333308151223,-6.601001596828886,3.8288986189787466,2.912818804121362,2.871015469699679,-3.437952006934679,-1.411238240607127,-10.279950610589683,-2.6550049758525973
3.39754194192612,-3.7792829743082272,2.3882958537639216,-1.9967541524983257,-4.259473557849299,-3.795884854964772,-9.30866981873467,4.725627713124752,2.2205247281948317,3.2870157771516912,-3.3758538691265114,-1.2180030778267847,-14.948120786899494,-5.045692932647536
3.7390184245661535,-7.248541210184085,4.471701517001728,-2.975669535772295,-9.730652780471546,-3.97277412486196,-4.270453509372683,2.8793189756116857,1.7102239432651412,0.9292420006560856,1.9016549943513128,0.1225912323662258,-7.949978665994322,-1.5570131467993629
3.194972373730427,-7.415448613994278,4.970859504656337,-2.1570707517933894,-13.839106621539118,-2.3786232517640533,-1.1106833901821178,0.8901726669366082,1.193409046091552,1.0820286165101975,4.775956152404453,3.071173505350937,3.176375258123408,1.2683390042557057
1.8688024725852048,-4.288374778172214,3.1543434223472557,-0.4031035587516061,-12.97148342089255,0.0619957394621559,4.789494381135481,1.0418313672199009,1.399083543927078,3.0577252669831814,6.786644637642271,6.350587012332018,13.577053041702667,2.3519093329945275
1.7089280977584551,0.5888934855334185,-0.166031715466917,0.7214915555139021,-6.231647763615356,2.5677995935712303,8.460806879293683,3.584732484424846,2.719242996251212,4.790344777324417,7.0828564746372304,8.029802882874304,16.828690350351703,2.5518291176260264
2.618205437916556,5.020513717881857,-2.8378181636752124,0.4466039984016106,3.4040620608209777,4.393671250127811,3.899329827899578,6.629954421999141,2.625139526635361,7.172840534819576,4.371819929576784,7.351504676578422,9.084122296112866,0.1055381884166082
3.6990753057525434,7.2451736670172835,-2.8983991436233607,-0.6100249469338217,10.885341535701976,4.640919074667426,0.88759375486931,7.649731567918648,-0.0611401418569602,4.810202769623427,2.854153656426056,5.425691280961922,-2.1297347394884696,-1.8457370842402767
5.355493003945695,6.693499565073703,-0.2055959777178607,-1.156811372480007,12.551297891255768,2.6122854968160905,-4.917885001960324,5.400592123156525,-4.935118795820591,-2.9552319310130724,2.056877071993165,4.09853425201314,-13.010267981661071,-2.674141297671411
4.993085562723194,4.1303199556772014,3.3610329692734333,-0.4260443851002925,8.572126493441127,-1.376173715872817,-8.974923237053032,0.8315999938358232,-7.57180695789925,-6.125092451735545,1.0520319615310465,4.1870257666289845,-16.51632542083556,-2.271644931607661
2.3187540484163014,1.1934280925715357,5.394853481236847,1.2224909324702395,2.52638100726059,-5.62728267285447,-5.537691299797991,-3.638557129340452,-5.243581895721381,-5.518813233724949,0.5941406886971026,4.855050209092266,-8.960292877129298,0.0835206321260732
-0.5819341541888146,-0.4572461772109937,4.802758806405046,2.6446703788480104,-1.408697956636467,-7.917777789372046,-4.390521969560162,-5.850880643392912,-0.1961888171742032,-1.3336505652613997,-0.1850984540821445,4.650295050040594,0.9542983120300208,2.1089827206933807
-4.371222939191696,-0.042043186574783,2.342970601912982,2.7491358560524297,-1.3768482436095135,-7.182673029525288,-1.2323359388298052,-5.30879303511757,7.379027376501581,8.719385731078962,-1.2269999780024403,3.0206701080831992,11.964410599952927,4.765907441549094
-6.508795992460385,1.833997047668265,-0.4579857451956624,1.178985145889042,1.2674347316040009,-4.561582543479119,1.8976428919722896,-3.2592825916554244,11.323029706236628,10.862320999133576,-2.4509813225915886,0.75183756554536,17.438182468844715,5.889176841511109
-6.538864212134447,3.4994855675379464,-2.762561801626436,-1.49542969483811,3.46359120254002,-2.64796461025078,-0.757319371500059,-1.5347153291733178,7.683213139346703,4.88938352084393,-4.024332696506046,-0.9875747183780352,11.487722060655887,3.6174627776935058
-7.557138971194891,3.38669205468185,-4.796318025599704,-4.063553089538876,2.906682921256017,-3.388804294079984,-1.251669775784272,-1.17658649711445,1.5161705191673749,-3.9705726968581847,-8.444552567170373,-1.8424985261969715,2.89708578445548,0.5983638253185668
-8.939621348704712,1.3663799663382763,-6.946548368997078,-5.272763233388101,-0.4111993925088552,-6.437979331154311,-2.0754691150127624,-1.9311674376730568,-6.655546790430262,-19.059364359293983,-16.038801366421687,-2.417111753905939,-7.659335193895535,-4.71690723562089
-7.456898315072807,-0.8961004086673867,-8.74065288723015,-4.476776182668859,-4.460387698469554,-9.449742213318087,-5.2730027053866335,-2.8891019992489744,-11.31273766388016,-24.10956628961357,-18.89818550641297,-3.313103768882045,-15.601341380795898,-7.870129473866958
-3.2687839818236037,-1.1980290848320707,-8.908258639398893,-1.9942397891850352,-6.733448827509359,-10.05007631377961,-6.106479108956051,-3.559082279729183,-8.17931191773072,-17.89423739393187,-17.104052901162692,-4.221777388605146,-13.708565785466156,-5.4717858509158965
2.5844132445114125,1.089735837400256,-6.527206185722347,1.0719742531264016,-5.902890730872896,-7.745176652218534,-8.050856346315584,-4.352104688773195,-3.652110465440448,-10.255927970091143,-11.843793971611472,-4.1267219961382215,-8.25119490861362,-2.758514674135157
10.839780318171382,3.9405955732962967,-2.101837376960556,3.473504887421692,-2.5945994588662087,-4.192802872799479,-12.017250597250364,-6.051774160734295,0.8584358569234903,2.9051375092939846,-1.0807666581603426,-2.4210053973825905,-2.605557994266155,1.4588850879891508
13.821575308852616,4.00523603588988,2.526758042883809,4.497100387827393,1.0320256019596936,-1.7865188212376806,-11.63542230098508,-8.801008791828911,3.668833979526848,8.201325508677874,3.2759757905189337,0.2599372105038124,3.132609793712734,4.217249308052517
10.860704787060246,-0.3526695489011069,5.409388546789332,4.256657326382637,2.584988764608576,-1.877057471387649,-8.38057272037206,-11.592187790721264,2.15444433193221,3.886150904856479,0.8250963702261795,2.380780161655541,4.735209807150641,1.7787013105597704
9.308267110264936,-6.943126520806095,5.789751516256556,3.484906661194867,0.9190251280160016,-4.023955111611244,-5.17780126364686,-12.80272412033166,0.3071251233400331,0.8433126355542464,-1.3138425422950173,2.694744556983644,1.766502618010731,0.86777141681083
7.418368983464382,-10.836991244877682,4.421744831852118,3.043331834187798,-3.0401697116027013,-6.624121859378414,2.1013165379314427,-11.379960341072684,0.3892822829269395,-4.372785186650066,-5.886517124592263,1.14535629206478,1.9291390692920043,0.8975090056524967
5.897954213612763,-8.208748155524209,2.7797266850321134,3.4486569310406376,-6.719048102981905,-8.17580559219915,5.925897458728597,-7.692770417577998,0.794161242870467,-5.285642105977484,-6.043693999397996,-1.2539382941751724,2.7257649014883434,0.3086204917050182
5.856984535072636,0.2483924845013326,1.9321543171413251,4.595622983692172,-7.460323056816659,-8.158648282764553,4.042370942252852,-3.344914472621251,1.6974314933810772,-0.2186577281887999,-0.6660691213587004,-3.262279829771563,2.2894575585354198,1.285988423546203
2.9431068919799945,9.502840757882844,1.9490133572403223,5.757813975508709,-4.302390265051605,-7.044860027714168,4.196309829932982,-0.1170894857185163,3.735586355056396,3.838781147179013,3.20364530848703,-4.137186849940153,7.703850167645792,0.5158163115310431
-2.540472183019992,14.045214921868284,2.117065066228709,5.915021716970165,1.2602317625479835,-5.698181815150176,1.2014969995763578,1.1176598264625297,4.484488791921582,8.783152510592535,7.275429648332047,-3.7901768748567495,9.137318900220343,-1.689793829524988
-4.26292958193294,12.127091491528894,1.6134948366003914,4.346238962786956,6.166404813024959,-4.765135355006469,-0.7208193352159724,0.7344042375501423,3.740042082414462,9.83444101214897,8.560349785132082,-2.584965370620147,5.608066276684887,-2.0124155039963343
-2.5704969986787063,6.669074414411759,0.1237444295821155,1.200186460227322,7.786673641296394,-4.447217359226181,2.087486337044054,-0.1436657314010259,1.798682133365192,5.697211701147504,5.800357655223568,-1.1502870104859166,2.976917793422021,-0.8256657799521299
-1.358572473401846,2.2153701643105546,-1.912473260321064,-2.3690491357457497,5.648528658972006,-4.570383833626572,2.0920406338190283,-0.4639531652323847,-1.6890250698584046,1.4288701403813535,3.701759209555387,-0.2300520248186703,-4.882921253737944,0.5820374269824398
0.5656514805696382,0.9539567383779204,-3.508036521245455,-4.7142911501796005,1.6758515425929787,-4.641258405609802,3.344318329340118,0.2085212909659621,-5.45067898782638,-4.4435282174445945,1.2710347424077024,-0.3680711279022577,-10.77819981180232,1.5492647560941408
0.4439325114671663,1.4859089312250142,-3.711029988940151,-4.614295951169664,-1.2062199693266296,-3.82414403190875,4.351391175865562,1.6189086048670682,-7.000917124385851,-5.771479240692139,0.0015625321274674,-1.4944936585289677,-9.841571394533318,0.5974831745679257
-2.436844898873252,1.1403944970291435,-2.2900876153656355,-2.023386180592931,-1.0961043846146934,-1.150059106435243,1.8593061118529823,3.060889545554436,-5.011129279845791,-1.401974263056354,0.7437777169500099,-2.8383554130063056,-6.726326093221673,-1.5924116051849078
-3.4924708734859675,-0.8541954439589776,-0.0511307251424524,1.8475375009825703,1.6498174516965658,3.793016674267157,1.0493333647997394,3.70584134450889,-1.5593004486663322,2.82302529704346,1.8649347439778703,-3.440143905154846,-0.6169833107220011,-1.6584325580662729
-3.3772662969617087,-2.6376445848613,1.5861247159673186,5.188712679417716,4.815689261815605,10.059802764843162,-0.901773428602975,2.946048895286924,2.811896130709238,8.618143961519403,4.055546097422021,-2.929460736442911,5.401590465780176,0.5694536421772043
-3.074802472426684,-1.978313581449361,1.5874421777244765,6.601983918997627,6.038741231174605,15.318029715945466,-2.15293596906971,0.7238907528438994,5.484655640471887,10.498928121642932,4.780667553731488,-1.8493906102615525,7.164100213130276,3.51026534655088
-1.805353834437215,1.0561366980288052,0.1257064357959287,5.877246026532282,4.573368847950846,17.090281700280812,0.6175951022995759,-2.2812906001280604,4.228394858847337,7.2917546202153245,3.753946133654739,-1.170587056182824,5.513131675929328,4.902779648746959
0.0221616127790654,3.900978207944045,-1.518536449570938,4.075104608994615,1.792167746352728,14.59448520429191,2.605337559398991,-4.797595179452316,1.2938099008327142,4.264187012919118,0.2562090664453157,-1.421110245557529,1.833408987828236,1.9565980731034485
2.5041343858902856,3.943678457301251,-1.971159400836564,2.8292354314772425,0.0420035407318614,9.665178638300226,5.977182908453386,-5.485733163151092,-2.0261017016380523,-0.1717401528517796,-6.629770759854983,-2.2462026625096456,-1.4340177193528874,-3.366187514767935
2.9084395717281017,1.018935448758875,-0.859607393695963,3.239201864979879,0.752417854651124,5.746170589200506,8.773384818362269,-3.631232495265916,-3.7232130430296366,-1.7811637997206609,-8.58957306197814,-2.7884208858459054,-3.448008308249681,-7.231554123130236
0.9298998592101608,-2.603760907584022,0.9314458091351876,5.042800716283861,3.311342097322583,5.536025695781781,7.219410481576588,0.3737329989600666,-2.436114230256307,0.3909527574746136,-5.505576624631607,-2.4872639540143204,-3.9322185466932553,-7.003918105742769
-3.1826189947600105,-4.597648136469521,2.009311185958633,6.678977110690246,5.613955291612021,9.103367045950606,6.309388904236498,5.082817675923806,0.1934924878073252,2.263391756690047,-0.3028845153214406,-1.5415659225265927,-2.2473393705620115,-1.7910258213723
-10.340123871409554,-4.757505576192698,1.5432791569235382,6.30917962734444,5.7953804440450645,13.97498542694434,4.7616315132794265,8.659279120683403,1.9916865459928024,5.076585893229495,9.076461227650068,-0.6655875614757383,-3.1977614778475933,4.2302332004091365
-13.080210136826349,-4.765517456848663,-0.2017982290961225,3.153725859700576,3.67001413512754,17.088787419579248,3.284921547055823,9.87585047002982,2.0669470525213107,5.929949489264477,11.57046107854852,-0.4512260963726717,-4.175423123513019,7.13977926269535
-11.098511407853756,-5.95114204554268,-2.171218927564393,-1.831987794188996,0.7132161918447018,17.03320501300705,5.087181676680783,8.873281183083344,0.6484393978128504,4.130569933784552,6.3984387663938405,-0.9481148094642644,-1.87605399140232,5.603072363344817
-7.894918705975156,-7.528691482925566,-3.302851805869637,-6.515609273189677,-1.260152450907626,14.878216383891756,6.473428004157574,7.099320450843212,-1.258036931469355,3.077227057810397,1.6266315227665682,-1.7651955950898954,-1.795131035780446,-0.421188541115955
-1.6030357781522169,-7.233128145234129,-3.187223739302113,-9.045114646581055,-1.4702140532418797,13.115726732389591,7.826609989420946,6.320377267263433,-1.562682985092469,1.96733423273904,-5.370765339372626,-2.46508325065684,2.396244870461854,-5.6890985979166215
0.2498944588041915,-3.767485080986949,-2.2270207254286225,-9.147129420533492,-0.4731590048257428,13.67197499779816,7.918956662206296,7.329631738967475,-0.4430991133824626,1.7168626689165822,-6.523784426543857,-2.8137878567984256,7.44047786673006,-6.676909111529883
-3.0149935295733474,1.3836273218579942,-1.286519840394348,-8.284272323074088,0.6110390437900778,16.532814097819248,4.61981375305077,9.345434392403323,0.6046225287495577,2.884636931006742,-0.270787523607831,-2.717860346008232,5.912584184675185,-3.581374282883829
-5.981133251483763,4.64538980622817,-1.0994846299708247,-8.541245211706446,0.9975966256060262,19.910005998645683,0.7542709003681225,10.628743470815843,1.256623520606019,3.220610158794305,5.038917048209542,-2.0806896938796853,6.11806914775946,3.263233437747654
-10.505478321498684,3.0855985892140847,-1.821816517933664,-11.079944875634745,0.4506366553319245,21.63820405907426,-4.442837695704447,9.835161067538088,0.5495292865229486,3.0321242816587364,11.58131493314582,-0.8873670978729795,3.3571417108300308,8.990405806662805
-11.694563487728974,-3.1293082799959797,-3.0249454695592672,-15.318800574823886,-1.0645343086117838,20.58394079610748,-7.2772134506481505,6.981616867490837,-0.7229361633660373,2.8604498623549177,14.12215169858342,0.5120684672102818,-1.6578017740234998,9.563442019532667
-8.614384679870255,-10.635289619923377,-4.109503312959815,-19.404442190757397,-3.54705186558478,16.96854394615888,-6.349945270764215,3.294901617302125,-0.9214401039068106,2.330626007995221,11.0915828825572,1.3228934976131357,-2.0362455838413056,5.546532714591824
-6.38799821309856,-15.233374746786003,-4.767811360908257,-21.53549053811021,-6.59409610020058,11.559098762536845,-5.706957043191678,0.2408002796114415,-0.7157779410913743,1.863036949087307,8.646758250420323,0.7613844899092697,-3.3260305286266334,-1.4592739068501763
-3.721685485854559,-14.85422289311935,-5.077982487772843,-21.086629387940985,-9.047393499948097,4.750753795891253,-2.7336127562870773,-1.3333913201687624,-0.4217597678948213,1.4531924859103622,5.156763136470325,-1.1650295100757389,-4.286292400939825,-7.993888612774034
-1.530136991927338,-10.868659586358998,-5.174128502372505,-18.736050210986782,-9.453587009555015,-3.3952410111692317,-1.160636149574675,-1.349244328410633,-0.116458511464886,1.135797179937794,4.486767282920042,-3.2609958332734714,-3.1541597175674942,-9.788294440280511
-0.5649119988541829,-6.8428292539253714,-4.877282664416001,-15.663309046630015,-7.294556641376999,-12.211935370320878,-1.7741617199719806,-0.1576324711309191,-0.1480532791853842,1.0126308291430477,7.760771096523825,-3.694845797639598,-2.3438708395262737,-6.58468326443156
1.6640481626710708,-5.795716327919095,-3.714386907900472,-12.604662821093664,-3.852298249976988,-19.83418190992368,0.1381573700181479,1.723084612168257,0.3802462484347747,1.6081540889413928,10.54473223067575,-1.2714858201984005,-0.4293620527003768,-1.6068531204581245
4.787135039700711,-8.066440403046593,-1.3468688501518602,-9.542450103428123,-1.5549449886535074,-24.117700924047465,0.5912295326258203,3.60761258799502,2.1517272340123874,3.043935099679759,14.033370514664526,3.5443072508969644,3.0682997175756737,2.82905802392269
6.259801850355248,-11.304699715400044,1.9918654109353,-6.147570263399874,-2.0021629733329567,-24.702856886877047,1.2228847916190713,4.691204924988522,3.326356465554607,2.925892740066656,13.905987115626305,8.750664487147086,4.884212745405312,4.43752621687129
6.273810644093042,-12.399088819526884,5.45407788562261,-2.4253953541378266,-4.353775461941779,-24.305988259257298,3.058035989927016,4.392864776608206,2.3438464710720304,1.2288515763538668,9.206145492788238,12.048168365730984,3.634025749115093,2.1282025779503035
6.602019135116887,-9.740974368321034,7.968548950814972,1.0783597387123742,-5.76068526192469,-27.470287707563223,2.365618495810784,2.756666760273564,0.2983714805319007,-1.4261632005736864,4.743897770958752,12.22819990643944,1.2510912851538667,-0.218065461097287
6.804931934718175,-4.163928849885977,8.77039530079349,3.664293087740412,-3.7678298719886536,-37.08134701638383,2.684441463072765,0.4528097706696194,-3.004504051685882,-5.656098198310705,-0.6891536006336598,9.670340461738055,-1.917703232247447,-0.5958651120223168
6.908352434850946,1.8803674021968897,7.745435043132963,5.044592544617527,1.3226018359564198,-51.21802180790515,3.0925070643356323,-1.7065144710301188,-4.956474162655513,-7.343614527830877,-4.018215773588656,5.750205190633908,-3.590297414672634,-0.5900132395735416
7.170802969167841,5.995871449524456,5.44389870450348,5.547161893266965,6.337766273892294,-63.18808616876558,0.7861800630558943,-3.2976669517841914,-3.110523994696647,-6.243587665925592,-4.309628791895674,1.8545403281705763,-2.2238474190421367,0.3510430334803309
5.828321567508882,7.071423036001471,2.784704961547357,5.791528162160748,7.670475749172318,-65.3497745248689,-0.6013934651003416,-4.387648106366006,-0.5665488153357741,-4.493147064595276,-6.243175232249824,-1.190464090364422,-1.0907954341859123,1.9426955550979204
2.833811911317931,5.471180504658761,0.5765427862323289,6.1506476159127175,4.248794350079311,-54.263611293923255,-2.808989131855782,-5.2122654731292135,2.26235030334454,-1.0449646899220826,-8.960438085648052,-3.111948841413505,-1.7127375574299066,1.88053586849248
1.5594836873253513,2.508224386314388,-0.9056636699193872,6.481814100559463,-1.525625583029368,-33.40767051024089,-5.137564948913155,-5.854282221158456,3.692121575504504,-0.0884365814736337,-9.832847075149086,-4.01699099801613,-2.654935373587737,1.6715769175526902
1.842268276402099,-0.1882756097399427,-1.991436877972776,6.357216081934661,-5.67061210033248,-11.320149405356798,-3.042595916502563,-6.238616879811185,2.143196841898115,-2.0461500112377853,-9.371088406050228,-4.361982095248055,-2.25653206998122,2.333481571201053
1.698211336931889,-1.163789097864751,-3.1987054815942724,5.592362055517139,-5.691096646203078,3.6072970047240247,-0.5677719544183185,-6.320674735661276,0.3257254876152409,-4.995740395199067,-8.175500780741615,-4.861160080787216,-0.7281536507063806,-0.5825798334663805
1.7746304282800736,0.3931643639093582,-4.58380565694557,4.613826688487474,-2.2485245455936207,8.009225806591513,1.7866562464210551,-6.129888499894865,-1.1664614771157755,-10.10828610041624,-5.821719035400228,-5.991728313319344,3.550866031740488,-4.418174889177509
2.0001302916706,4.192250165527357,-5.410228564160423,4.312305970009284,1.7776060156149245,4.783709112329482,4.358780941815695,-5.579085246850712,-1.6833771493163898,-11.728375059979967,-4.340158440839202,-7.28423184518307,7.351718697286447,-5.337178561568738
2.172081187717977,8.740560235495336,-4.547832204445154,5.421919699135186,3.76578622122691,0.1997901685107743,3.075085670748783,-4.338992964951965,-0.937627979455828,-9.421555103350649,-3.889811176349082,-7.177860496456163,5.931263263694221,-4.437118834485535
4.496824089789266,11.977592888236725,-1.4365671121300427,7.875830528086618,3.167807342687576,-0.6225172183095533,0.7082502675332724,-2.106123926781908,-0.5627132989581801,-5.660946264241636,-1.2074980060754112,-4.006365536610706,2.373781698628787,0.2968011506517506
9.095628021360294,12.4903841597123,3.1250006317854884,10.685301788024743,1.3449746932051978,3.46782268701914,-0.8286977270514797,0.8330745526866559,-0.6788170544563373,1.0804768191865537,3.401497786706896,2.382587797505175,-3.606499126041195,6.559212625951022
11.496636225953248,10.509380452343285,7.134550114601204,12.540113491365268,-0.0291144273305823,10.0939341016274,-3.0274436802590623,3.3075752260431948,-0.6268639087264803,4.539779651659585,5.471192680528217,9.785805550558743,-8.426862020283185,8.186946134373098
11.91879468478669,7.824992834834146,8.601375574751383,12.742628828628629,-0.3615222185731906,15.967668373416336,-4.7884240872144535,3.774180567137038,-0.5147276436116253,4.268914397669563,5.276559638587671,14.671723942882938,-7.096772376320764,4.25609592237055
10.603996759084986,6.511674549575929,7.033066203729895,11.73421476207196,-0.2067452687919995,19.292469293457497,-6.069605778500318,1.5155323222472323,0.2136930635568624,4.636837887036293,4.215557269349829,14.634362398062308,-2.073620156730576,-0.9491613892909128
6.452182713107155,7.360686251754517,3.9987558907113376,10.726254308787407,-0.2849861367398536,20.385110102063408,-8.568957081928703,-2.396566576209984,1.3508833755002343,4.14973251963934,1.3211027637454755,10.390055406769546,5.093053772955613,-5.781918311225421
5.448840878296963,9.30939338510139,2.145852513453562,10.685996741842978,-0.6132385934444895,20.736185162063077,-10.13989113431382,-5.427355475205138,1.262770245285697,5.025797399895189,0.4278167922764381,5.511656560252463,9.61856787485434,-7.072927018064631
7.660645694978729,10.45184898224302,3.285632807168805,11.537285067344952,-0.5665201811354383,21.76337445578672,-8.48523107911185,-5.3399624242881405,0.4583418693207982,7.847292398469876,1.7839486510857645,3.857098870629875,7.503681326464628,-2.7255136446794133
10.832920928117954,9.88172968066555,7.054631519180335,12.311574523630084,0.3629029105686157,24.167381709455885,-6.443355635363952,-2.153872792169659,0.2544796992983997,8.724964940882929,1.8318854092587549,6.6571448800467286,1.2933462163015708,1.3608513125483697
16.4013518865658,8.759831487955278,11.299483153504571,12.140540742491986,1.9955514688284248,27.889130220852053,-3.4750264774233077,1.4913074187548268,0.0753131255893014,8.144581834920944,1.3790494636435977,11.661553152052708,-6.105270366387199,3.788483468871085
17.986212225908748,9.480226415195911,13.87026976637861,11.155595534531331,3.6625537108325625,32.25039836288561,-0.1868433352736752,2.2708937604740163,0.2678992377725185,5.950702756196836,1.1122098430081293,15.07695124240582,-9.72279833611618,3.855562151515513
15.119745412678176,13.42147257105298,14.225590184512152,10.37460900839175,4.892559656970652,36.118544103970464,0.0941985776637612,-0.9529983422140184,0.5676093082397203,1.3393098041387244,0.5752277789801081,14.640515236597794,-6.531933778182903,0.6363790298676132
12.778000467454929,19.18867333386362,13.422362445851109,10.599120759719469,5.809928563570606,38.23702738771794,0.467735534836959,-5.845989000865362,-0.2530006413601791,-1.843229406110723,1.3703589460734713,11.200805170236508,0.7792551662362894,-1.0390991728399168
9.481418908403713,23.10367402678392,12.619299314223117,11.365787897075938,6.795349453859974,37.737474206944505,1.7637771022679274,-8.319080089510189,-0.780404334021378,-3.680852750576292,3.632316835139711,7.545035997244142,8.01213296527564,-0.6492769044422844
6.166315581746364,21.862534109666164,11.668046059987295,11.063120852296468,7.762322762659885,34.54900272091327,0.8610471521115285,-6.019507935032967,-0.4041644054748052,-5.068501718466737,2.7975613301077176,5.693746295523493,9.70149393540471,0.4908783252626625
3.4606622440546824,15.252664100596498,9.239162604511243,8.272060258948816,7.857934193430056,29.416858801405404,-0.559589558061961,-0.5723557106488508,0.1299865231023916,-5.103339698351038,-1.0979804618873377,5.189571669446895,4.338274504043694,1.545774061004783
-2.039651127782846,6.519731149034537,4.350658351488687,3.170702570492335,6.046624491935098,23.566183942458142,-2.23744575423446,3.545191285444792,0.6852042781129095,-7.939777279416447,-6.981713613200045,3.844212288056488,-3.623111702124214,-0.2943565225740169
-10.132064708143057,-0.0970861370762454,-2.25185583236501,-2.327441179525227,2.177203895989124,18.26666942582153,-6.539543837656292,2.6674738928733186,0.0669732016119108,-13.745619569006855,-15.997694533768874,0.0487775436921551,-10.345975681540532,-3.8489949896935975
-13.938486453143268,-2.607943806971849,-8.250739019879859,-5.919746510349034,-2.4308067936012243,14.449140157995778,-7.22227397767074,-2.9882183762620054,-1.2236035967019734,-14.866277644204365,-19.68413962769596,-5.61443489900001,-10.49157576062238,-5.28980360956522
-13.56218514771271,-2.462867792048784,-11.32867685132552,-6.598424636342489,-5.555866202673197,12.35972847988571,-3.7003535706767208,-9.46829257576038,-1.0388532764615908,-11.7343177971757,-17.519789973233046,-10.864857075248077,-3.0054227798435127,-2.870398782867319
-13.244418343625256,-2.7084996733818696,-10.746223744021703,-5.226086722990795,-5.520563725484665,11.33535546145916,-0.7738477643609832,-12.231325511522147,-0.234308065618653,-6.4239664186425225,-15.158332745114144,-13.640600890429312,3.1993929674766357,0.9504702658571926
-11.540400600900435,-4.934706159802225,-7.64834906553676,-3.5985760152951536,-2.441580427435225,9.99841258484864,5.791281011422933,-9.546148610243046,1.7308927527566278,2.745761812229637,-10.561523368824144,-13.55794514520704,7.642317129491349,4.438647641911409
-11.215321874377665,-7.917440393200971,-4.073746696899089,-2.952640166061236,1.7200278796563755,7.051208992269643,9.007779502393989,-3.3988912335219843,3.5469092454231808,5.776950812365619,-7.929266891067507,-11.765298978881727,8.43298087900204,5.001395659274165
-12.925220178445858,-9.140681433784762,-1.6782197603649478,-3.2483804991192846,4.397768780119954,2.300881643158279,6.71354314507303,2.4874917024240006,2.0747984471328573,1.9970146327833596,-8.094600085995104,-9.726271936493532,2.8995529876981467,1.4043574345742595
-11.436514107303276,-7.536345068035203,-1.1222700038720923,-3.6722046049435786,4.046556358741336,-2.897595328710429,6.812788381499384,5.523771078750404,-1.036227349619328,-0.2689892296731959,-5.250691795053195,-8.286809540563647,-0.3663517030457731,-1.2518601824644264
-7.294490014718757,-4.635775306766432,-2.237139961182273,-3.631797242219984,1.0124810991927375,-6.334810909782876,3.424606367087384,5.651946508575508,-5.525718363896706,-3.277192076076315,-0.3602473488575156,-7.673735511744436,-3.641556549008493,-2.158772629998114
-4.834079107376247,-3.0102362052404565,-4.438064786354695,-3.2094826633245743,-2.857075249569906,-6.443495405382478,1.1809607025242386,4.569806628620076,-8.18585016071812,-3.02970893614007,2.419843305937345,-7.878544078466696,-6.316495303970202,-1.5823387512463571
-3.373403112549078,-3.65788602124464,-6.926851399240732,-2.7830246508678838,-5.433180145693614,-3.524144712405663,3.395379483819647,3.98201788090085,-5.984439569397696,1.9044220200336133,3.704506248195262,-8.631624251837842,-4.201483039970535,0.0286654438651925
-2.4502355650515235,-5.044568327016368,-8.718367751043838,-2.4240300995899364,-5.476156531340851,0.2671312019516545,1.8312663670612053,4.508580749875951,-0.5821559664733642,5.3832450647408745,3.3907296050950757,-9.031535123401897,-1.7624402058197286,0.0128183847098999
-2.8701531928162174,-4.783542282505438,-8.808973294486714,-1.804022421252486,-3.1314534305202857,2.2282811304736114,1.9857822265141891,5.794661976692481,6.904963746164192,8.609250029412095,0.6073519609306401,-7.667719748312227,2.785710087679606,-1.1636899442677089
-1.3889178334121457,-2.228462339871014,-6.621938560859551,-0.6584875853492898,0.3188940846929855,0.8171790910211456,2.820880745838541,7.134292539698688,10.36070719047511,8.917457205943585,-0.7468455534033092,-3.677002241247955,6.364723179844431,-1.9592479679102568
2.0290876122690937,0.6882265330213547,-2.477060825427108,0.7928221435738054,3.157095665879367,-3.422792210346298,-0.3734074505188937,7.779113530883349,7.236890894771449,5.060935610633438,-0.7680401101997614,2.0441973401742493,4.791338798084197,-0.7394309262701303
5.360784965607893,1.2857645926704109,2.327097019712835,1.9770711981143103,4.048906565811813,-8.32631181171067,-1.24214463717244,6.921914977622309,2.4998644666399445,0.6264814139253437,-0.7953820108999491,6.839456974946968,2.354832465204008,2.816676940489587
9.291965413469006,-1.1303478108607323,6.000997332914055,2.481973082121848,2.6935565631559344,-11.604884796532884,-2.393664620656537,3.949234339176927,-2.6958179660491006,-5.420716588482019,0.0328875318436805,7.955851788847079,-1.137256524108718,7.405190424782662
8.269447414628734,-4.344913171854725,7.088367392697769,2.331906346063348,0.0123795747092967,-12.343080724907423,-4.5572343807917415,-0.8441920482313208,-4.558885296509599,-7.94841232370244,-0.894829878804708,4.657004664561395,-3.161726074492675,9.018599258084592
1.546451715813565,-5.134727204797662,5.1398086907506295,1.702202694576329,-2.3232000502231958,-11.49155109587966,-1.8451261441857272,-5.777555569362539,-0.9717523071147756,-6.068941173145444,-3.736231602158532,-1.1096755116387391,-0.7216121161615523,5.644865129702683
-6.310320643479974,-2.3038683310586654,0.8535971868043051,0.4510230216155908,-2.8738737090218915,-11.075608632793116,1.2369007703034751,-8.417162099333666,0.7755294239216788,-4.653661584447848,-7.964722767297867,-6.224325636442848,0.5776287014575237,-0.064941772189766
-16.78415358175226,1.977368301149907,-4.337764995724628,-1.8681903798692896,-1.3405497604360943,-12.7383145059477,3.805412474645995,-7.204819999684268,0.0774843194490994,-2.304523368162548,-14.30956742579172,-8.812971167100825,0.462535705910698,-7.222219970305104
-21.19263256514933,3.857030819196042,-8.934920491567858,-5.368340641419213,1.2553508979621255,-16.679698264332753,7.299993207183481,-2.7819489126859738,-1.3149504496787716,-1.8343890152900253,-16.38548912044237,-9.418048410684474,-0.2997725147313274,-10.758885892798007
-18.240346584452965,1.0769891685963304,-11.927101006339774,-9.213127633363635,3.283712685859973,-21.70299738691564,6.73308333386828,2.2905790602996143,-4.293712331677972,-4.062166819818067,-13.810585445428131,-9.933921605138414,-3.059151772994285,-8.207299734217845
-16.611044859291503,-5.075465445686854,-13.030519656997308,-11.841905693889917,3.5789153684804043,-26.214116052437497,4.638147344117108,5.331368836586661,-4.915073919296667,-4.9474956596584185,-10.89427345041995,-11.44131506256756,-4.192059997208792,-5.211198260626141
-14.09051271430933,-10.893943504103886,-12.606940740923868,-12.089814235297478,2.07326255909371,-29.323675427684982,4.011031653813088,5.333157678988604,-3.1594582055391527,-5.266905313102932,-6.103289114641598,-13.073003473286583,-4.327763360589152,-1.905196464220532
-12.401543438738576,-13.440466445249184,-11.36566923040104,-10.270431007971542,-0.3959377932411763,-31.219198811072967,2.6521048202843507,3.2483338852969674,-0.969787069509884,-4.5323366290510485,-3.0387249666438456,-12.952970437611096,-3.87637888943953,0.9506862017090848
-12.836874194969123,-12.9069103140516,-9.98335491644431,-8.118032788426058,-2.7892037679253736,-32.64447992977857,1.9923859473000236,0.7397947527026415,1.1810523020903991,-2.039830792868423,-2.389014327248014,-10.1832190780273,-1.911123156659504,1.2753405324626683
-11.002858040028796,-12.029177660704624,-8.798692019771433,-7.441774197853984,-4.423139627686871,-34.051619475511174,2.532884668016642,-1.2123910859889762,1.3699762398188524,-0.1549422338124351,0.5161418792935062,-5.869115438485608,-0.5299428780258266,1.61637206849241
-7.566336042666369,-13.167031496250264,-7.72727995205625,-8.584638879563425,-5.0347621580896975,-35.17925714890435,1.550665889472591,-2.549819622810959,1.0920200744243274,1.381624997471455,4.824404246133178,-2.203878975087121,2.316168869621758,3.067577890550724
-5.971738187312692,-15.855688447382072,-6.433603630427701,-10.086257700705485,-4.564318357747364,-35.35973448453907,0.2083933480568802,-3.3176168709083296,0.6573802367300587,3.1155140676277413,7.426075288761925,-0.5610277237544956,5.130955768550433,3.326732419966345
-5.7799398441422,-17.209347665625558,-4.632021710982756,-9.93519582893424,-3.0858359338082773,-34.2066763760769,0.6034337723631268,-3.022145027718831,0.6708753980704881,4.619061076866446,8.794402425265794,-0.4420239250327362,5.745602878718775,2.8441132425593394
-4.849339114713148,-14.854429087015134,-2.317783226887188,-7.351107548028736,-0.9982087896692796,-32.04881313271732,0.4586430288627054,-1.0633461061308769,4.189668764493415,7.813287955011756,10.140192336696575,-0.1871750324247698,7.190663099360095,4.477176670535478
-3.706698801273307,-9.611177839078152,0.1725815631728988,-3.5233794234085325,0.8589635706868113,-29.74965023967868,0.1474187051918197,2.21339955497237,7.991917440420564,12.817126532788537,10.945773771880392,1.3619902045760184,7.616294042458217,5.492883602762628
-3.3005632032968504,-5.270343289197003,2.2297477719760144,-0.6604391686311955,1.534865307101041,-28.11042321960796,0.6314494766076697,5.140923356272849,8.50872471854258,13.05477966589654,10.076333475862512,3.8468106787472336,5.419687755173697,4.785194721298342
-3.4075742624916963,-5.463368566849649,3.113222965722989,-0.2194345950664189,0.6393890315643447,-27.38322344235906,-1.018213264782171,5.711503521818832,5.165596056683533,8.436847886485213,7.481504223678087,5.839522028033189,2.5084056566209134,2.7029738748781127
-5.07273239281392,-10.354797235929086,2.206018259456569,-1.871874113391546,-1.2275396023097287,-27.264970138341223,-3.476139863724972,3.1848072498595776,-2.015007177098851,1.165787841374261,2.224138436802276,6.162985432190176,-2.117694427669906,-2.29530711779058
-8.566733715765338,-16.15709769494999,-0.5875132501999807,-4.0134960279897545,-2.797517059104708,-27.28301213266492,-4.923160999228505,-1.1403407313219276,-10.003035107408529,-10.423274234502374,-6.163347194213224,4.835035816508678,-9.194205322606402,-7.81091748383156
-8.411024695008864,-18.020251994486973,-4.484170580784284,-5.204623141327788,-3.059202768841476,-27.167648563869697,-6.359349512107944,-4.7489998567944784,-12.261688853506632,-13.723616643447013,-7.663296049616075,2.944286348227731,-12.253199538939931,-9.250406204860974
-4.4791707591366645,-13.89111151888076,-7.884804347295072,-5.187659669156159,-2.033150534860814,-26.896899857151645,-6.197884622709688,-5.658726149858602,-7.4931182125695805,-7.77294794492432,-1.7766614654205184,1.782675745306235,-9.368600726495362,-6.046541259421449
0.3621257618755906,-6.097165102379527,-9.0737388387088,-4.685362665624137,-0.7145086496280175,-26.456699873727278,-4.575475592677679,-3.653458105410584,-1.561569505823442,-0.8365525848656875,4.561155272676849,2.053471604393481,-5.607153899827543,-1.589965244647728
7.415472838490048,0.6160856128982628,-7.248421180353128,-4.391286863888673,-0.2267718862719681,-25.60716585761775,-3.32530830940518,-0.1183396049273937,3.940541278382578,10.246207189818287,13.711708146117148,3.6661354506198673,1.6454887191429404,3.4134186198914787
10.859232404986477,2.857564807408019,-3.138234753950373,-4.226091904372705,-0.9191098563884524,-23.88777443104104,-2.358479534572776,3.161479950457129,5.442254615019464,14.58210773958029,17.928524067676683,6.025280020477512,7.002574123001925,5.719970797435841
10.038125945351297,0.995019889453726,1.3679233557486832,-3.5193287483128795,-2.1422344132420483,-20.85787075895211,-1.4664238824128208,5.129177193340599,1.7813165848267465,10.576416531163506,15.837062419200164,8.417760400330934,4.369847184867044,3.571615784777798
9.19390855479276,-1.687556913883013,4.426451501339969,-1.81672990313986,-2.8039216712632333,-16.407188293870618,-0.864589979388987,5.73067560555986,0.1155647895675797,7.080353479040346,16.790939339294074,10.231069620078486,2.6296329393818696,1.5497860660490717
6.815043404886451,-2.123363862017769,5.402388749255212,0.5234118740069356,-2.1851549720943257,-10.959816337655903,-0.0187530861259133,5.457811694207497,0.9456918132386596,1.182734949686168,18.90291276750724,11.010511833268431,0.4341027901585258,-0.2663395069406649
6.319417066838646,-0.0426997507314861,5.101227517901145,2.475264979493625,-0.4196457952849524,-5.444820623142626,1.46913555007195,4.817239490610105,2.059170420602649,-0.9458824918639844,19.266375016636346,10.495543053004305,-2.363786335542779,-1.8925876904701844
8.35742649809874,2.1957384741331776,4.921871980282359,3.0432691385749635,1.5877354652148945,-0.9603234232265274,2.3879020557654624,4.152472227830504,2.932149819814231,2.080794959469504,19.06845080783383,8.711043760088511,0.2455764774847862,-1.5084964894795077
9.837138092998831,2.1744490823486107,5.666507417580519,1.901599470762668,2.665034177901997,1.808158393646067,3.008324438469974,3.68738141499265,0.9684565589271446,5.0316371480140205,16.290576093691943,6.059463555719535,3.1644571308099514,-0.7435188041659474
11.701228416810144,-0.085939279663697,6.991142502243627,-0.4652029847551135,2.0396473512372726,3.1117813539377988,4.187143447052479,3.463540070087797,-3.4368366478680983,9.757224334584487,10.499232343682513,3.278749986434553,5.004921123280591,-0.8367481472753986
13.140739107318916,-2.0097085870069744,7.893027334084629,-3.0895634967310643,-0.1191967868819854,4.158569912118056,3.7586666950301177,3.166619622651824,-5.335248012862578,10.80546529280025,7.477864959281214,1.1766256533163657,5.963126848310914,-0.5068841979489362
13.771945388023534,-0.7864435818708515,7.731235416253826,-4.9855955387990445,-2.6305422022344302,6.419575395452707,2.033332711935248,2.182247363122217,-2.935954951330196,7.265821137718387,7.062448039569736,0.218604877608068,3.717539066194118,0.0294993253663918
14.804538758366796,4.03591653163093,6.857772407326008,-5.4706674465903005,-3.9534613271618193,10.591319756264507,0.6848188053081512,0.0871221866005371,0.4090522913223007,3.4449957245021547,5.218455424305839,0.2393487502919976,-0.9733172729274148,-0.5298846781911933
15.960443598985307,10.03354722370102,6.333765495561157,-4.300369602619528,-3.3201071426936744,16.028499856617273,-2.5609167132605117,-2.739533761338415,3.9326578522696,-2.178494235287581,3.040734161911407,0.5642984863456175,-6.125899793601989,0.472429042942091
17.286825723639538,13.876589830332204,7.033470851131368,-1.70494166097552,-1.5091475448820224,21.245162785027432,-4.057301051045959,-5.004837716826994,4.603740540165435,-3.5677541757941507,2.3452894228557573,0.5645442585324734,-7.908560179007778,2.004084631822127
18.95189618368617,13.999431543109974,8.950027743930562,1.6498120014881894,-0.4147888518517506,25.224819654490183,-1.259653875206371,-5.187022643670723,1.0528354312958608,0.1980098675916426,2.8032930047321263,0.2685912500091412,-6.232638102459456,1.737948917565546
20.418362700990876,11.69727615408526,11.27851985890227,4.863831599649373,-1.474238834966788,28.47359190776685,0.7195207380727596,-2.602602438464752,-1.2832162820558528,2.715361500438087,5.690409134449048,0.4847658300586142,-3.964837505899877,1.59820812156438
21.72730690259308,9.87902731838432,13.124592636608297,7.202443289114981,-4.171958015165201,32.80033492306085,4.36681406373538,1.96596050048324,-2.693895302149148,5.475126541745063,11.510582342012937,2.202502419520457,-1.337351632397047,-0.886157533982711
21.52529174517908,10.708637343713418,14.156709416201776,8.494373737471154,-6.065188644312029,39.82825700207627,7.939612520567855,6.612151225631083,-2.7603613032355865,5.785192016116162,13.699090765483042,5.659125208866218,-0.0222446455605458,-4.137523632740349
19.553336889547925,14.11336522315696,14.64221490038811,9.170257931694326,-4.6054574773119175,49.44494282388018,6.209846562812705,9.402974483002572,-0.6308038580063319,2.4634069325768926,12.210632043198036,9.844099920735305,-0.7768022464441141,-4.194218090041812
17.71264943982208,18.183382151521727,14.924205890372116,9.79060869496131,0.6203859955362458,59.66130074498002,5.192001927725125,9.45621641816764,0.2181843170648744,1.707995199418067,10.427928675482232,12.951542421615937,0.3437081852425935,-2.292727018160951
15.673150454087123,20.85480155218256,14.908239801063374,10.411624453981602,7.1926223076917895,68.24857405920899,4.57622457733284,7.276356415291625,1.6595992338146104,2.7955361292425307,6.853563294887446,13.528814996494525,2.957394638629493,2.0743530937608616
12.824385855481314,21.363803108601164,14.065346039764483,10.43394985065705,11.495415103070544,74.86372370715225,1.577734539709552,4.202726300532898,3.1039965692183933,3.0176898588955585,3.8752927123110106,11.44564536256271,4.253155977589575,5.9729777838233895
9.437088887681092,20.376388890111823,11.933409102636915,9.221117899915388,11.472102576523678,81.66426696342579,1.2381034942428095,1.4518147247251072,2.4997985218880525,3.368774330654688,1.832431960530233,7.8991327846439,5.340675640450301,5.66426822698638
4.102774851613546,18.924937534916985,8.625878340984798,6.970851146145495,8.213160436106515,91.5374633925149,1.0736743112555518,-0.5401842374222934,1.881945334253444,1.6954104091914786,-2.3592502801579918,4.448017244249456,6.2981043194949855,2.9603627557298693
-3.355685336867961,17.264923123573418,4.870030232188958,4.893839563430955,4.976965639779504,105.28948436302257,-2.053958450312855,-2.0750161191777505,-0.9305642785562976,-2.4505645161192318,-8.222249352630039,1.876193035042776,6.39127489794141,-0.6017275753269351
-7.892295297792326,14.736935478201003,1.5420645692058148,4.307166860756912,4.401502935987798,120.44377668915298,-3.3355926489968635,-3.62853160358467,-3.99996788506163,-4.120719634819727,-13.111510730497372,-0.1934193994132957,5.333688209693412,-2.8182797478082824
-9.471643501650185,10.746910868716313,-0.898627949485638,5.373566020949699,6.258046883867574,133.16960934636597,-5.070929080639702,-5.336830973379483,-3.1986068964106438,-3.620098645871668,-17.332682884397567,-2.6878996993680917,3.169285029833204,-1.1937472363200667
-10.946627957958585,5.894229681017043,-2.6277070893078656,6.751433329649194,7.700680716510959,141.9098134353575,-9.16949681642624,-6.972225343156415,-1.21993069764008,-3.207879217117055,-19.97301270884677,-6.086563215038958,-1.3961762969803593,0.9789062980679788
-11.18226327066964,2.0501821026145644,-4.202751621248481,6.66239403795052,5.845459904349567,149.12149517319693,-10.999058095581594,-8.319138906894409,2.742483347134715,-1.921993960955681,-20.3483447627728,-9.92192962077627,-7.677257867244342,1.4594877385784395
-11.445784151754644,1.0995203264343791,-6.078110177454473,4.492267423916239,0.4584655425537218,158.605555242276,-11.36554145628849,-9.436373282984864,5.639132728586688,-3.804445519745948,-20.60653129976256,-13.139012431286424,-9.768280470378103,0.6968886240332578
-12.019590001445408,3.3447177889683672,-8.237416067284187,1.4313929405688874,-5.621628449129728,169.90952722281395,-10.178829879937888,-10.435123979133724,2.5366703003193924,-9.370847753601454,-20.33627524856397,-14.894148661049291,-8.007293264611203,-2.2460486625970644
-11.20720527746703,7.020606346771757,-10.149515907047904,-0.4727589300666555,-8.744017530853617,174.90698548957624,-6.04788666921143,-10.995093985160509,-2.7129032401203874,-13.84822996580705,-21.04473797759571,-15.068390082546632,-7.125499674886105,-5.623299297907289
-9.298619179250316,9.46645430873787,-11.045741617110885,0.0170324766562222,-7.430535745775582,161.09321686613885,-1.049758450407448,-10.253546341108258,-9.173605506340518,-18.12985297922049,-23.22398459615712,-14.15224203450023,-5.56585045916373,-7.561159531936081
-8.359398157318116,9.025472367776745,-10.379005727190371,2.4368364997087864,-3.4816974264832643,120.82363933243332,2.2050599963942688,-7.418979946891914,-11.67545633203805,-18.58410153968829,-22.325702130022734,-12.76000477586584,-3.9412588135948576,-6.588199117072907
-8.304274028915243,6.086352559731812,-8.247881589216341,5.182669776884033,-0.3017685539447319,59.65936751256768,3.633173720403595,-2.684855046630154,-6.138613123053046,-14.030400450694394,-18.56656083116246,-11.2584060365454,-2.9818532033431606,-2.6765735696599875
-6.506880904420338,2.4793941436396896,-5.523911415065417,6.831768986752314,-0.0265170936195076,-4.085937054486369,5.381206636667494,2.4518517924168868,0.4963831752762089,-10.51301931403907,-13.3225696047817,-9.733010901514293,2.1393723513368994,2.084142310532278
-3.241469023842966,-0.0873160584236396,-3.497181226940532,6.985870798709756,-2.0104672388063687,-50.35172082597785,6.56379828094918,5.950778463495993,7.365902218844489,-7.0023497899242,-5.604699675698337,-8.155835923154779,9.141437044552426,7.67609068063558
-1.3585697895948143,-1.1435185418482008,-3.1398028378968865,6.074422631646612,-3.841793486881618,-71.50964791692118,5.387402012797193,6.562764169897407,10.322565606321218,-3.6734333984979446,-3.1847583794001872,-6.535057767069954,11.028837248586436,9.359359123209632
-0.5667702588850518,-1.3404348041916667,-4.449363467887779,4.612897509738413,-3.704669636697083,-78.21983463039356,2.8057803197405664,4.625155523624821,6.831713463555181,-1.599601953587035,-6.694894987280224,-4.981741825774432,8.909333416871283,6.01234468497221
-1.6775385700784795,-1.5427843864136743,-6.414235547502891,2.770884030801425,-1.835629587787014,-91.09493558293178,-1.890433318892864,1.623193594649368,5.800408386053823,1.9406176274667988,-7.802431854063564,-3.71837854929286,6.839859637152224,3.726060009471908
-5.421058661536764,-2.142951548751406,-7.728328198458263,0.5711414779636674,0.082520838123242,-123.96335341864946,-9.6925829702281,-1.065363257006802,6.458617639109409,6.61341581032549,-8.146536004222803,-2.9920410730226843,4.817134240528674,0.1894483011842858
-6.987297248162496,-3.114779959180266,-7.742434661040773,-1.6864086728595855,0.7146321315700659,-172.27010175357745,-11.198619018477952,-3.07440318157348,5.63824641137583,6.412561653000728,-7.91723245985504,-2.846297265556843,4.175061782535536,-2.433308528023756
-6.512001277676189,-4.451624931774942,-6.862833454248175,-3.346911314865914,0.2207891173910631,-216.4905506972609,-6.625294216931184,-4.798272184433232,3.8390626208230767,1.2440828736793468,-5.758752780298691,-2.901295994328356,3.7784688398934847,-1.2642019182098592
-5.833354134524909,-6.339322487335147,-6.045484398678846,-3.7925819498912,-0.1880568946276695,-237.7852868718197,-2.5473204723399734,-6.3534827609982605,-1.3736012234411867,-3.2816129122570388,-7.658358608252135,-2.461446118174228,-0.6879499949372214,-1.9626314753997784
-3.90122544280824,-8.875554609021636,-5.8437432333210335,-2.9162683883159417,0.4223631508115049,-232.50277529876,7.598843152653279,-6.963754716147346,-9.111797541535932,-8.342150767399882,-13.587836831780582,-1.0647334575409266,-7.9549575746220995,-2.4108057734285064
-4.49880553735947,-11.721822202452636,-5.898389759386727,-1.226309041880691,1.9241177192549923,-213.28138403897523,11.038786975775842,-5.600124449575785,-12.228129494752173,-10.413849205837616,-14.812888975957277,0.924065948280642,-12.025439018276812,-1.7161874431556297
-7.938867433915377,-14.12627895890893,-5.357411583564134,0.4856360607796255,3.515885475838091,-196.5679603248502,4.619473544013721,-2.3793130764439048,-9.317253268936748,-8.234931341071048,-12.036860910851958,2.336060504270576,-11.237248054759435,-2.7338657526197188
-10.877756422914535,-15.321616395257244,-3.833712031076721,1.5903003890075096,4.612720180908697,-188.35575865062629,2.07347621652014,0.7588547748549892,-6.633193833375438,-9.230819156639145,-9.037151160276316,2.055380996489492,-9.0230000255491,-3.2108687989503992
-14.163459429749622,-14.936774548779642,-1.9736678260339924,1.8295235870891653,5.164273585436452,-180.88946631059,-7.077162604760893,1.1143609003601702,-3.629340200534883,-12.511137994720103,-4.150389369805863,0.0840422729688212,-6.0727870010359695,-3.3351718197626687
-13.27812689271476,-13.1334468064053,-1.033540333470873,1.246806348695043,5.174456135446917,-162.41208293293073,-12.174423088161126,-2.583596072796322,-1.2628462653434562,-10.681051006504136,-1.2902624890964118,-2.1929736746320856,-3.1828913384847484,-2.710418833953504
-7.316069960026512,-10.497676141016324,-1.754453836555692,0.0788975121096351,4.245390468279268,-129.96967481813135,-5.837696715921888,-8.745714237347512,-0.8884857513510653,-4.498123875339092,-1.003740785318037,-2.937040755113064,-1.2484692435951288,-0.170777868484673
-3.393672386628425,-7.856697779895619,-3.492273183421034,-1.2129812933078163,1.973091830743689,-93.04618907367072,-4.619780157972667,-13.695530268211565,2.2440527274637203,3.878020044979606,2.5737925242398374,-1.2617518271051351,2.5044923063463704,1.7125749456160366
-0.4975768996821888,-6.047005100118602,-4.413371348118705,-1.9004147394521167,-1.0868084641107143,-65.02557545920095,1.3184106179007826,-14.19665980005052,7.720653805778674,15.909972927890962,8.711840544559358,2.1259804204958432,9.48751886200825,3.042790995252136
0.7537777552346248,-5.542501625718289,-2.7306456195716677,-1.2140845114701146,-3.1235695310882314,-51.07161260965101,6.706354657973381,-9.694754252464358,9.833184231479326,19.32499698490734,12.250934052741592,5.628009158386674,12.33864730962602,2.745885982104688
-1.081473528480893,-6.037385694104396,1.8892690114978536,1.1291434660694066,-2.252504353705719,-44.04758781605453,2.0630222625935613,-2.4903553365320583,7.801772471329885,13.052874717563972,13.864619841002266,8.125059165461199,9.054204563745566,1.2010676055104126
1.1737573818268074,-6.386169171812016,7.807748245746014,4.487989311704744,1.611419301807043,-32.0820611880913,1.601888231315699,4.094019530527417,5.033226411815062,8.049635357695054,14.638219338211982,9.70899273432964,6.508437646438859,3.2033677509049445
7.308872473279655,-5.248282438978971,12.239022930751638,7.425270912259665,6.059100184790796,-10.256135812850363,-0.4745267010621135,7.853322560067098,0.3653255973601327,1.4545058683931962,13.585543442279524,11.112436879794773,1.2361898952912296,6.39358088899472
8.585638671739696,-2.191695338988768,12.910036023547892,8.449950077331398,7.744386378714282,14.794170053587212,-3.612777281592064,8.52005955962482,-2.7570057799953744,-1.602546440588527,12.400673463888587,12.467425426901563,-2.7124098705052067,7.496566545359552
5.933042739205167,1.6294865071392803,9.445262996817084,6.860877506983968,5.113976759876993,31.563720218268244,0.5609419947467063,7.108892359154513,-1.773307468401421,0.8014359777615881,11.031198951784782,12.721000497783052,-1.0564547152588142,5.64850024253464
0.6550938690799673,4.034017554418278,3.5584011691890938,3.0774355947224947,-0.1427887645656412,35.04694649227811,2.9152973673782787,4.866229927876821,-2.265644113648164,1.0143897436645537,6.006382049099792,10.43086460614798,-3.482495553270415,-0.7694987806262695
-9.046971795069028,3.4391254560679654,-2.029928675467473,-1.6982308422913737,-4.403006621745966,31.839594009465067,5.269022515356725,2.7794349150001274,-3.010912623480481,0.6539705019754795,-2.6306929879188203,5.316054221289222,-6.599147019381259,-8.196978272944643
-11.934302033970956,0.2769902070368957,-5.177203080466125,-6.11467225110851,-5.104877365268305,34.08269718096213,8.547642127975672,1.596330146962198,-2.3551249594293684,0.8908018745243721,-6.30421530250282,-0.8944653782679781,-5.959996451468773,-10.767762776567713
-7.467144355798911,-3.160779143641171,-5.375465614937252,-9.150302606300286,-2.7265745666579044,47.89653138899912,7.016019225855303,1.7406206237101998,-2.6155428213704317,0.7082310943945026,-5.083661577663801,-5.270839125736549,-4.71265619677405,-7.930585449059814
-4.588218623264335,-4.552569426772624,-3.709599197184759,-10.32603025592651,-0.0114717952354612,67.03957941579478,5.876127610039613,2.955262687956824,-2.876307137404381,-0.2702902906846354,-1.1866083146876167,-5.673487453213431,-0.6466083759616612,-3.4377790407237887
-0.8377728118850023,-3.5531173884217218,-1.91351002239392,-9.7929469524685,0.6788882140718773,77.64482882719989,5.074244069392953,4.211314862779517,-2.7434026695771507,-2.2603037150250853,7.528577121829144,-2.349075727353227,5.14494723894596,0.2404852435891209
0.6887322035330674,-2.108667335916669,-1.2279453102494655,-8.32068560344729,-0.6634780593252123,69.89603163605098,4.4331758471096885,4.369472755897727,-2.833272424516399,-2.2882056461364586,12.241995421769223,2.2239345623514297,6.5383714901386565,1.8484415636610465
-1.4101560093644434,-2.620937486415851,-1.750985244746056,-7.004433065398743,-2.0804958110309046,46.62056865480933,7.937459326121701,3.2419740211905985,-2.084227445160153,-0.3233256636632809,12.641496707513658,5.184878727457996,3.506948571865199,1.6737478155996046
-0.5171449916540163,-5.523791813899641,-2.5749436072577465,-6.636135239303264,-1.718216912636032,21.83468477177732,11.733822489032526,2.041208531119059,0.7083320672992246,2.9694016462017667,13.409772462960271,5.3640501313591065,0.1309094829242082,1.653390914156293
2.4937417232592085,-8.554003018740502,-2.5347739460072924,-7.118668890409461,0.5245778693972825,10.85547119504194,15.657410630516768,2.55940782466812,4.234824912842902,8.36390690286182,12.473246698133911,3.8989691598782863,-3.844962325244804,3.694834414209811
3.605029664552711,-8.582730761534272,-1.081484331943611,-7.499808339047011,3.131636464706585,19.9722017260577,16.657405598573007,5.56261486640246,5.493648072423547,9.24323684084046,10.716140417443984,2.9265140072434512,-5.483969113593538,4.128131267685659
3.697951341604436,-4.525646341624245,1.2647423047535802,-6.777636015221228,4.39007764468542,43.09999181165576,10.372898590666471,9.736901279905236,4.200814990563155,5.182436920262523,8.347077571532552,3.5119889889042604,-2.8586749085036955,1.449403217088307
2.399568936251803,1.2630000325808082,3.1956757009496477,-4.889736005559925,3.601344972074188,66.90232119377794,2.657044316469744,12.249218766174687,2.38794901917395,2.9240662850281063,3.890195365087322,4.631525125217571,-0.5949580596903433,0.2612730531327067
-0.9939612704011286,4.486416470543539,3.4908766493326704,-2.9936210130482053,1.2067207407430474,79.86912207044413,-7.653179423481824,10.73387111266806,0.7436905597975522,1.0977685691274506,-2.534586356927797,4.117411799091755,1.4413249672848396,-2.806215925042667
-2.5564084477568008,2.178565813605733,1.9086021331353955,-2.667986079599802,-1.8306544038388168,78.90341056614731,-15.329363272540546,5.277037401449459,0.3380121176659032,0.2351308481802046,-5.487591622001736,0.7601105156175207,2.5064717066309803,-4.500236666256998
-2.3492251874124794,-4.893901806567794,-0.5765986311721067,-4.604361947232456,-4.595963616620876,69.52898190300061,-14.576947971412553,-1.2262992456264352,1.0069868723778908,1.4826381100912476,-4.745242528532647,-4.290881782998394,0.8801206424067683,-1.5468130874174528
-1.6990209455624392,-12.612571400654494,-2.428303819600646,-7.864630769452171,-6.461748716022227,60.478490752455386,-14.74434753624682,-4.860588967356361,-0.498040616336911,-0.6093082338405261,-1.4346941542258322,-8.12324073542517,-1.40275557980441,-2.1950369944037997
0.2924612202795105,-16.31212203242265,-2.644776719026693,-10.38167732081784,-7.239194423574883,57.05876254458225,-13.289344590353297,-3.463142255951084,-4.008143150746687,-5.861566462203278,5.988173761704887,-8.232740234249203,-4.297795922399999,-1.3841552120726768
1.995023821619469,-13.821706186971486,-1.4432042536307796,-10.38955848565073,-7.342599287555336,58.13231364602194,-9.88088353004902,1.7203100939802214,-5.506220378668714,-5.67083092009255,10.84177264940703,-4.460728909587193,-4.735059196551059,1.6208654478702236
3.3779206480801647,-6.58993469574928,0.0409869223281909,-7.698706633959347,-7.637011980362239,58.5370036460368,-10.947309705957103,6.912443523641493,-4.020661630115945,-0.5265371847284338,13.012871600700404,0.924844473511895,-0.643536601426983,1.921454897993168
4.010475092913294,1.6346140926423711,0.7955933515187805,-3.8146885770105055,-8.735690203241377,54.40335310819462,-9.336956337902942,8.659960327329435,-0.9191152172723496,6.111556375438048,13.203064778262624,5.01680633840877,5.2937288536448985,5.112633047556786
3.414487091101971,7.332001323478787,0.7932356479711771,-0.7905643226589286,-10.211124579178795,46.555723820125074,-4.688702638486803,6.417295329628562,3.721684933214345,16.031683785499084,9.615259958900616,6.337767495380899,13.99154556390995,7.070564063299738
2.685738603450854,9.109375947911882,0.8635574720608754,0.2821941162808163,-10.603957922326847,39.08094954439339,-4.143070940480613,2.720874250039639,5.4467023019172185,18.68057185252148,7.209213518570765,5.45979339776311,16.925524419892195,4.048595206130098
1.5419663133146064,7.884631598531766,1.6653327301882168,-0.0662752224795693,-8.528298920444836,34.715886358433906,-2.1331472517951946,0.8159396347442014,2.368340122014222,12.998054444253611,5.662253308463121,3.854903943746971,8.460560802560689,0.0535247310567111
0.8991763211289234,5.606299132560977,2.765282290906814,-0.3812337076983159,-4.02985827805807,31.7497936941364,1.609961877854759,1.8163721848653047,0.1960940552562861,9.121975862548974,5.274806849611386,2.278969275504965,-1.3370540610380248,-3.805234044769597
0.976298001040407,3.682522283827256,2.8474127206406123,0.3157034452084239,1.110828206390856,25.66178808720418,1.1439133261857042,3.907209677160929,-1.859318789854897,4.610772913942307,7.20348000302838,0.2900575251130075,-15.368719133900374,-7.158983325119022
1.2963342242629077,2.2698475806100564,1.0341048019137924,1.6887279920257887,4.574587969131237,14.026762838539533,3.325879438639557,4.262345344916387,-3.197204656637049,1.871463611879272,6.303741733769411,-2.753426845882696,-23.011986953970048,-6.594263653619654
2.179220845702691,0.7713491620451229,-1.8908469281053808,2.550760907306731,5.221280855230075,-0.1177279603608472,5.830110421624024,1.862103410946279,-1.4805616738918816,2.5565863407152176,2.7752059837442395,-6.40323043884208,-13.924942316331588,-2.438478792358985
4.173387903050965,-1.0613414891198492,-3.68825958999166,2.150650254173639,3.8198271659796976,-9.92545210862108,3.601708675260526,-1.4483031141182092,-0.999324143776791,0.3250286592877677,-1.195982448765473,-9.007814321565512,-4.915617544929811,0.1854541803776537
7.39391685638177,-2.4451466246006026,-2.3902142483271573,1.0274151408954126,2.203326159510964,-10.158431869402303,4.628670303606117,-2.6953708098777405,-0.5747856987058944,-3.969989303481996,-6.662002224929054,-9.015259143244249,7.542233990924005,3.900214263691541
8.925149225554463,-1.9343963743669628,1.8730985596330103,0.5916859318938639,1.714614379502163,-1.5509947994980422,5.246154323751488,-0.7152840464362873,1.0204579261488484,-5.493485881386578,-8.895090527171135,-6.4527531378833,15.85525438407096,5.898738355428703
8.70128753154369,1.4072070294838666,6.644068680238405,1.809606788339427,2.34107808224045,9.690891842752077,2.459476663407129,2.491195296215218,1.5206430814542742,-4.965327723831939,-7.385793306356754,-3.1127996526674866,8.537333926568465,3.020673073162203
6.134828463986023,6.955411442075706,8.853176335213917,4.20616526659335,3.117118006095852,16.596292883607514,2.6854941031549657,3.3726479335835853,1.1382263609117842,-5.045807037327515,-7.180690885255056,-1.2108152237516587,2.290104023777191,0.8166912893016404
0.3145380512210015,12.473340335477396,7.074645798290076,6.102871680818574,3.143487148356243,16.0896437921179,1.0337400666606351,0.0463906263858877,-0.2990863514979927,-5.022716420722192,-7.229826571789709,-1.7296934187380777,-4.472172184126897,-3.4291971976930187
-2.497084777868527,15.226215714063295,2.448667198011364,5.89345112113131,2.1923441434233504,9.899512441608124,-1.6682712575157734,-5.799565515134775,-1.858904227673443,-5.760174719253474,-6.980464536992135,-3.899849864719519,-7.990820783099956,-6.025067573161065
-2.343098177802297,13.604409943049076,-2.368631106231847,3.2944522336126347,0.5567310656110562,1.8186291453755457,1.091996153608478,-10.123854440944744,-1.603345623048471,-7.720883844583838,-7.170204952676715,-6.113973662415523,-0.402037585596553,-2.5021213216502343
-0.9081623854780984,8.22798402347701,-5.164274169623693,-0.4014717366825646,-1.3488872807589187,-5.440013441798836,3.6244398114473584,-9.864691259519777,0.8591226010290143,-7.141597852558926,-6.673417366505878,-7.256830585854453,4.33202639886585,0.3898809319560775
3.325949079932189,1.794017601053219,-5.405719256609546,-3.2072877276735063,-3.0744431092937177,-10.987820514083392,5.731424235236229,-5.471667980470057,4.31118270018221,-4.108681580394065,-5.59144601811738,-7.239164285110453,6.584890876043122,4.632318530576586
4.639373810929386,-2.3377666802692616,-4.043103577710442,-3.769562577004696,-3.9921930843324103,-14.405868233234962,7.732332749802442,-0.4630641753609765,5.609473621154765,-3.7972958413195874,-6.35791200077035,-6.518874240381292,5.520259714429619,6.764610409286982
2.834327984385788,-2.065601046254637,-2.45916992384,-2.2140683512366124,-3.4491813682768697,-14.773936999639066,4.5216465199448415,1.4849698972432517,3.3239083512516343,-5.754192164931679,-8.999036829402247,-5.422262262479829,-1.624673096436878,2.4889752282243087
1.0399513174748023,2.16757607094299,-1.5845856942992604,0.0368055629852843,-1.3636504583229705,-11.546232966955994,-0.5758488111336124,-0.6885550488835719,-0.4386341736833264,-7.738288223366881,-9.557969535223734,-4.07295703806111,-2.632035030155171,-0.0643688263217747
-2.070401355822861,7.590325494606091,-1.641955170078612,1.3315274453941477,1.321401437224476,-5.980505310921213,-5.557374447979072,-5.044876115629723,-4.2236027682705926,-10.717227377930747,-8.330246099232223,-2.8275206650683167,-0.5919861497832439,-3.181974582108141
-2.1802450485504745,10.807148702801232,-2.301467568281627,1.0012448884334688,3.0425892435413853,-0.8172319432834172,-7.862358939716305,-8.607201852054489,-5.442033341703687,-11.153231364950306,-8.152321158371464,-2.4272802863753533,1.2994244072675727,-5.0111247993604255
1.2674553103576287,9.957939334714911,-2.924126967368281,-0.1650395561761932,2.7970862331234505,1.9893287619215467,-6.134792896603066,-9.677401258772717,-3.3150379242249324,-8.584029619849888,-8.375087008910985,-3.416012107860462,3.137135995932905,-1.559712105662273
4.478110542493795,5.880510920911641,-2.851442974980852,-0.5772241500037012,1.0891432098191114,2.95267079424905,-3.679289517522657,-8.61080154421332,-1.5521944248282389,-8.351916222890027,-10.01989280623331,-5.341521646254767,-4.084340199013768,-0.7996602646221642
8.529597925469234,1.442222307101499,-1.7836491035627198,0.8411597947295189,-0.3492967998497285,3.7941760687264794,1.048320267123709,-6.861676307245608,-0.8291495495224994,-9.794465242153308,-13.631548035303355,-6.712879511153059,-13.073380570178513,0.2019508935359852
8.943384088106448,-0.4846155748126559,-0.0423910346225664,3.739620141715312,0.039839733590675,4.249264049133559,2.809823102472577,-5.567132216429993,-0.7309604816239008,-9.445843943843116,-12.764870584455128,-6.02456177685133,-14.879314852807118,1.4624304446585044
4.833583892551969,1.0700784912764425,1.5975116170297865,6.600846884959177,2.3417957855717138,0.7539845683833946,1.2916946363298916,-4.894088051217812,-1.3237709519647247,-8.050012455735333,-7.324040985586548,-3.0454230170719043,-9.81232537328775,-0.6235806497039083
1.8509870458286968,4.724205965106936,2.4745834982544253,7.937559599736648,5.157024474926284,-10.56081963615597,2.1019408690565897,-4.304122831593688,-0.194503180336439,-3.4863688985748875,-3.259199641352698,0.8163427975340358,3.207815834863326,0.6109498537284674
-1.13571236016107,7.927203763996026,2.507637618382388,7.3579062115751315,6.845990811515187,-28.81829847571109,0.2120130545895057,-3.137609537393999,2.842458288988797,5.0425121744500565,0.6561754115067753,3.4685130748577606,16.333895453873513,2.218975915106423
-2.429079602935784,8.73344917985287,2.0999727287029515,5.596863079614259,6.823337441862234,-46.56752990936264,-0.9623843871742066,-1.0509793186021934,4.553482777394984,8.766757490324366,1.899759460672083,3.617566049075288,18.567513900962357,1.972250527599709
-0.9539901315963626,6.830427963458352,1.6113977512721611,3.640381101651144,5.743537259798052,-54.10368907625685,0.501016161493301,1.7164467832417944,3.962742416592155,7.799574856443092,-0.7545557880446574,1.5594885043791835,10.69769446406789,2.1364612585917078
-2.10644085781278,3.2656504286979064,1.021708701050862,1.916164070352293,4.601288303665535,-46.94653778841518,-0.6706329141647291,4.249350914354693,2.098824734301189,5.396704249613966,-0.1080450212288822,-1.2493543210981617,0.3123010012464378,-1.3328312051902371
-5.404180872730601,-0.5934482882530734,0.1835191539559488,0.3286759816530828,3.8125247011049552,-29.8877198322338,-0.7251531452802658,5.288390444671012,-1.3563263756307118,-0.4675026242275005,3.2292914502515138,-3.308625021676537,-8.154394805828774,-5.669037302872051
-6.175705708109318,-3.8735591144629193,-0.6637805045422862,-1.0806558825212704,3.1792767826267365,-13.637060072806545,-0.9371448088752552,4.079598476516215,-3.7566188636848095,-2.5906413265136203,4.390802537203332,-3.913186610959203,-9.429293950676009,-6.711354422190897
-5.130518610957145,-6.238014409110955,-0.8298930554666306,-1.753816677031805,2.550435334882927,-6.702494680386051,-2.8204893584020474,1.1736059744713652,-3.0349829069308405,-0.46744251838116,4.492189544410756,-3.213566023617844,-4.023407438383809,-4.900428129338692
-2.3231707931157235,-7.438109219523723,0.197092939859246,-1.0520881591404496,2.235347997831472,-9.452036522902944,-4.091872112600216,-1.7227428518346724,-1.6542683932955813,1.7893686240727684,3.437032731879321,-1.7476780111335175,0.2139367814746973,0.1101360597915735
3.1697100655491037,-7.054644560375412,2.03229224525008,0.959394640816738,2.624931352381135,-15.22035356200667,-6.561502355902619,-3.0252231755196632,0.2303659640730402,5.973425121661034,0.4574272046368019,-0.0060860772126947,1.642703430245852,5.326781549767239
4.892603170524172,-4.781690130217166,3.45350641635633,3.327624071432993,3.507930539473916,-16.8953050631055,-5.855750520802584,-2.629528601822446,2.307022542518599,8.385927863484843,0.8563377663063504,1.6869981288545794,1.294609167346647,7.041208435577516
2.659710181166726,-0.9477103026913216,3.3943949255252264,4.963598630895431,4.006862534062847,-12.763105485937215,-3.2942249720169925,-1.938949808385729,2.529142096718897,8.537776742457684,4.765898909513096,3.1180193322841987,-0.3287034888838202,5.343293605503657
1.7712196612338118,3.3210489522071978,2.012241806768472,5.597665213392319,3.3754002163259003,-6.696239985332955,-1.281081056908567,-2.3440831309151378,1.5602384543656909,8.25123708830625,6.924263095399748,4.19864143891088,-0.8554516784765225,2.4986793167635444
0.8969027133060055,6.540875612549389,0.7297084887068728,5.889988124692359,1.8724564415746672,-3.4202064353378123,5.10751964971596,-3.6077087642820462,1.093992872695366,6.479050752821355,8.318587660146605,5.066419373791037,1.1432988154571018,1.76599604800575
0.7574518062470179,7.57139921703857,1.035059874955099,6.506786330208382,0.7264234906543523,-3.9925404216721434,6.219389971821678,-3.9230175105306326,0.4031508357541455,5.633817584797229,7.911547056055898,6.067894179425771,2.8912477248944253,2.4708837161130246
2.147779513097831,6.041533392962961,3.046457264555741,7.135907080325199,1.0827502875209405,-5.716573520864474,3.6021369208344893,-1.804477725440797,-0.0911529754048811,5.855660023630113,4.688267314621161,7.495088456304849,3.059567359736268,2.362385067431516
0.7161982677383292,2.3424692625526,5.199053126458483,6.597263646116533,2.872338469069012,-5.822983426661038,4.8277623611409535,2.0292848886026515,0.8222243657969949,5.901156639211948,1.0193167398686704,9.238338464032216,2.154253123734776,1.12521775192937
-3.3907194837898857,-2.5174287781821274,5.471378146374281,4.101332635744281,4.66792675902639,-4.529805439948403,-0.3518916050431837,4.858272427441981,0.1225548748676491,6.351364970149663,-3.6759193529490606,10.693050659627916,-1.591898297203408,-4.299486885833246
-5.455039764226414,-6.960762397178608,3.1467488104551227,0.4095334607533489,4.703368669997576,-4.227475665455044,-3.2461545455632965,4.335808352591951,-1.687429319391195,5.14202471353626,-6.571925919548749,11.08883516118848,-5.122683604787054,-9.300095929331311
-6.092650392416994,-9.048503313622357,-0.4605506199884468,-2.432351115221432,2.2133624036880857,-6.069774135384702,-1.3132120108005243,0.8102293602271455,-2.741008293343251,2.0494279467470453,-7.0901939620588,10.019949196719953,-5.428959179114584,-8.783009207260324
-5.241179826458692,-7.3043904854587804,-3.013114268202376,-2.7598553670942074,-1.9696047375822008,-8.189287079871836,-5.957786917067812,-2.816899435997963,-4.5491904093587765,-0.1992889454562116,-3.530144393852052,7.7311490246213666,-3.879169639364687,-6.856320043333202
-1.9142355808979428,-2.00196413868991,-3.047715905238379,-0.841641156916549,-5.958498833076688,-7.884316042665562,-7.018455725241049,-3.770755124623032,-4.514433734011946,-2.0037880915262014,5.379722555846668,4.915627108374791,0.2086001424451912,-1.8063813960223076
-0.1673524352912158,4.162115357386672,-1.1162583315953112,1.2510971651002296,-8.013307288155751,-5.470578176182887,-4.946129657143875,-2.072381106255222,-1.91660054660994,-1.5577745029304957,10.23376304044382,2.246153303905924,4.289364838070585,3.2623300155101416
0.1337785542720729,7.153772142229419,0.7947878603354526,1.4688765226457736,-7.542060814657745,-5.213111100854247,-6.3502382389124,-0.45904477521713,0.2729567228023539,1.8520492057727431,11.293042701873755,0.117012339806128,4.2862657016489525,2.917849474603208
0.5766984789378933,4.277457673765374,1.0130321123504171,-0.358886663047212,-5.320772418615015,-11.571542562793606,-3.1724476138342714,-1.4604213455279522,2.0873009684065367,3.3151486767179064,7.238739241691983,-1.1839396334689778,1.803295551763036,1.7082966574574354
0.3082579269067628,-3.4397354314762696,-0.4268328039839666,-2.395880190094441,-2.9284440861334744,-24.10297119529433,1.51535808254375,-4.485734649668888,3.2798340172022367,3.221598856370606,-4.49800979480306,-1.179590680497089,-1.2622277632352534,0.3581064259882666
0.1502013906355004,-11.369713633030113,-1.881120536798906,-2.530973233796292,-1.823138134760312,-36.302434546519,1.136489834518162,-5.992652502228513,2.4862249852895366,1.8373364407156556,-9.267633549253992,0.6963269243424417,-3.4961674118760238,-0.4964268845180849
0.1523902815109785,-14.332996988068455,-1.5193941946672878,-0.3368088821238215,-2.581126274111618,-40.12811399168163,2.21183283828625,-2.863992619452473,1.5555105816050052,-1.9335419855323035,-7.385568009940379,4.49237142556853,-2.219700103709969,2.3248189976487024
0.5443291124221122,-10.42483758247309,1.1216854854905716,2.548163093434788,-4.649816522574338,-32.40295424949652,4.144126593530376,4.180030507686359,2.575736692059696,-3.178147917843082,-1.9488487627535445,9.15592177009473,1.8803836939767484,6.956404042435904
1.569526577736577,-2.4991850128079798,4.627128919430749,3.871223871391466,-6.694440363248971,-17.34767194614473,2.2867465387908954,10.598371071271494,3.441507197279523,-1.9232189579550611,10.538323985227176,12.674858029247057,4.879314339773948,11.34128731002727
0.8664476844633933,4.030566762606567,6.54832324680028,2.617252908295548,-7.352418535805864,-3.114979545994121,3.0044747979468003,11.744366851350089,3.239276199515226,-2.2625882730018683,13.555767023334605,13.078540203444266,5.153593293323189,11.632264029629738
-1.602379154309096,5.311251898943407,4.988107520343052,-0.3828011809826375,-6.012575718951158,4.334967748779169,3.730292631032092,6.9248111859130965,2.2562525774135525,-3.304079272084405,6.512845509828135,9.642305258764097,2.7990858980240785,6.0584906005547525
-6.41511817079691,1.686148176363135,-0.1007157699225285,-3.407572914497365,-3.1840548957985373,4.714493171030957,0.5010457701329738,0.0081099620700104,-1.238268231511554,-6.866580159537685,-1.4728238877468642,3.403262645251246,-1.6058352867244534,-1.8113322021433231
-14.304417094324732,-3.1948784566657107,-6.713754628540617,-5.260012437566381,-0.1944042933699226,1.997167944930318,-0.1225308427676242,-3.967450082592196,-4.876778208544654,-13.778988062504778,-14.276603655132543,-3.3697958259329788,-4.380265382716147,-11.404740094232382
-16.519930369931483,-5.720789915162829,-11.861903668445304,-5.85460735920627,1.6365853170922229,0.4261068532110101,0.4723806050739696,-2.974444039614351,-5.031466224428209,-14.65522127370593,-16.936522679103803,-8.336376080057601,-3.8410015957174064,-15.18627252102153
-12.74285997531694,-5.054549395010191,-13.30594621697628,-5.717508161645114,1.806815965166184,1.8037817284869924,0.9357090536160058,0.8484899586972716,-2.971880871077406,-9.471489994630032,-7.590301185511336,-10.123680539821772,-1.9679151010178813,-10.193021728261444
-6.87072622842552,-3.06014011340865,-10.85806435176714,-5.175812536711305,0.8434890175342744,5.62251368366616,4.531949326367118,3.838757806018608,-0.7952819369184476,-2.2805618242918158,0.3501474533053165,-8.750884138005265,-0.3182053386103204,-5.877887033805796
3.299944589984405,-1.9640306980959783,-6.335783671042005,-4.082623142621472,-0.2237986603631192,10.571049576128,8.229341870497015,4.4389030413622095,0.8603368144610068,9.11085039246315,10.588523140300923,-5.397526400918544,-0.6664418972959084,-0.4331540230402592
7.574934692126838,-2.2258510367333386,-2.175026227109278,-2.188057821400782,-0.6654115438839483,15.406693430397809,9.579544327582628,4.3449036046958245,0.5497350318484375,13.560986524577006,13.964727948061451,-1.7389899382033072,-2.1094687356563897,3.539031575013237
5.082144472739678,-2.520314368846961,0.2545086782075536,0.3787360462132199,-0.4587616143870221,18.97097176463611,11.123814567364809,6.366262307864682,-1.0701811860388784,10.037251471232995,7.96870720940248,0.8594848805729214,-2.327730060281183,1.8175271294478996
3.4358804507491136,-1.460720755529703,1.324396957569995,3.0148505994490518,-0.041031344911893,20.472163393622044,12.120973640995542,11.329514675336036,0.2498909734871197,7.561927619776164,5.329823467997935,1.9524611298821384,-0.8236484305031453,3.342578724928164
0.1619891249470526,0.9063212769013482,2.3482782455324624,4.955216608875276,0.2267957588136582,20.320942166226978,11.880203312074364,16.97969520733044,3.4002430372695325,3.4477733429616944,3.52556839952416,2.0869100193021097,2.2288941608462727,6.413084082382817
-0.9931846635816652,3.2761247956898885,4.09582050230107,5.6770367460001765,0.3176709498024301,20.191228831498755,11.274823819287448,19.6800197615026,4.103663936820673,0.4207004478755637,2.123470119704878,2.2308939821197957,3.4197676255693272,5.249527507939283
1.0423736287621057,4.473645068906617,5.953497703601148,5.136298888317356,0.3576602917181724,21.215171559932813,6.761053255945566,17.16124390986655,2.1326776120421136,-0.2859564773478885,3.0984644244809147,2.9141099555138688,1.5505601040424557,2.476297935093279
1.1376271913600806,4.405954938466426,6.427041125324962,3.7750461061520895,0.3568707581445913,21.614816919369787,0.2954131704296894,9.982918160306156,-2.032764208136546,-3.815394423375654,0.4586853519212172,3.7392199589935657,0.2000575166370796,-1.296272226588583
0.3137564963134031,3.623330829749147,4.482809209718749,2.3237474723619584,0.2327664229026673,16.80229525707091,-6.770770634002995,0.87514737541591,-7.363206087040542,-9.35195223474368,-5.52369356742011,3.682413938028944,-0.0928266903181399,-7.033349064579907
-0.2016786393620054,2.230917767996477,0.5584454233933016,1.4306679625827847,0.0513006911477731,3.2873669313222784,-12.108009645621946,-7.049910245105114,-7.861596183224773,-10.716672203573811,-7.985226482308448,1.943979052488672,1.183002937746624,-7.854903475961663
-1.091061870880362,-0.3245203117016082,-3.5600714082898186,1.257539396605118,0.0757868443773155,-16.42742587343376,-9.04486920614218,-11.7191728007677,-2.582861606994385,-8.195490742519661,-7.655501068673193,-1.3621243050593996,3.071671736631539,-2.917458771231058
-1.1246780908434806,-4.115718643822802,-5.846374357684116,1.3344097548311886,0.4420006350193901,-33.048947354649755,-4.169207474174546,-12.488051707965958,1.014942950697277,-5.7076403976026,-6.10187735336665,-5.214287744413291,-0.0219699815613298,-0.948537627471657
-0.1735428494664714,-7.53313064582086,-5.2814989780459385,0.8987445108966838,0.8131220244263915,-36.04267867290739,1.0232055385624843,-9.83599005755823,3.6643394233502766,-2.0474396537117774,-1.962461436422575,-8.283174059239329,-6.956001138564211,1.4069813489472578
0.2866494367724588,-7.786162056294863,-2.421447516286271,-0.4460161755175633,0.5247712093040704,-21.775368915306583,6.134642645427219,-4.958761783980787,4.138713633978198,-0.539563791957352,-0.0696151171061932,-9.580563745101085,-10.25259030806716,3.33784794671325
0.4914023326651642,-3.2912071402739507,0.9884441666034292,-2.3097756900869086,-0.7606424444082407,2.828476799521013,2.3251627378196407,0.5320491260267772,1.265767295036875,-1.9520072323158872,-0.6175821868142652,-8.758870511445487,-6.471721185130046,2.152432353009393
0.4448680790737964,4.070665083588722,3.031596640701011,-3.8118678621233,-2.518653971693535,24.92556071382807,-3.2105662355738884,4.924518239696678,3.197625312445062,-0.5375166560728678,-0.0935412675893936,-6.127340268062895,3.950580953612284,5.859469062322356
-0.1265569043217215,9.320227450636846,2.660854066792652,-4.4525221210562265,-3.619340889516636,35.137038756999935,-6.427263709295604,6.803227855041889,7.460163280318894,2.9795760026609783,0.4593359555743556,-2.6394679707385613,18.394351908013807,10.838753837963884
-0.5057360234481457,7.775550638720414,0.2110662848146596,-4.775295149239746,-3.3300414174236384,33.664569489538174,-11.059813430897718,5.40581320663909,8.465911953984833,2.712951176740803,0.0844937722460323,0.1771707071687096,23.24315299849923,10.499211293079489
-0.7628996193295964,-1.0294404416677416,-2.86344977113788,-6.05926641555439,-2.1980423274209144,28.129818793006628,-10.93042141745584,0.8354513091368254,5.885634306342525,-0.7782592633448894,-0.9342445042186333,0.6798761918323368,12.645735255155802,6.078171243600732
-1.5645600619087328,-12.32505281770334,-4.87574209056125,-9.108544766267125,-1.8668721480107455,25.83742397751148,-7.7538977158452,-5.830122724211542,-1.407741046383831,-6.419862458972162,-3.623848664991068,-1.935679626812352,-1.6097618339767694,-2.294011188042225
-2.830637272403561,-19.19559015568459,-4.925643684041594,-13.17036241670573,-3.739726272251396,28.036487446262317,-7.947245846088284,-12.548714807514449,-10.76694177944955,-15.468216658465726,-8.24467752965756,-6.759918750138175,-17.911625348648506,-12.6166855476078
-3.880069745210782,-17.498093296594945,-3.440167714106103,-16.132137784152746,-7.501057572991738,31.076448797013235,-7.057620474511633,-16.71842291528155,-14.091888224663917,-17.082405452088512,-10.415574714190887,-11.30568778127525,-24.156664079075437,-15.524291458006084
-4.78742674459764,-8.714126033271144,-1.849776519169316,-16.113208710740953,-10.844636136068916,32.07985499645243,-4.044341110660761,-16.258749689290376,-9.24263374597454,-10.535815618493858,-10.109323420006476,-12.99035986268511,-13.064589659851771,-9.52296937001928
-4.526739011501414,1.416065641353399,-1.54344870996184,-13.18804710631688,-10.906975528415083,32.43055888807485,-3.506374495359045,-11.05878653673382,-2.4608402213472664,-4.693700636970344,-8.793376259837538,-11.049765377762023,-3.363451018046648,-3.66888028742984
-2.84004952253751,7.141525514016816,-2.7954063319946725,-9.590358183605042,-6.467950904861865,35.27879034130751,-0.7444285847267057,-3.704207209753279,4.800714652603024,2.931474108539992,-5.385288335071154,-7.26745477430463,5.635997324733927,2.0126706471883304
-1.5288809028903596,6.372599905183338,-4.490180155165499,-7.947716145186703,0.8389680758642744,40.065268809674194,2.867939366958439,1.593233843297206,8.163617843659122,5.467435187339934,-2.9916068548244485,-4.650224990344471,10.076795226745595,3.887642634039583
-0.3469494172675909,1.227123473483832,-4.955246791705761,-8.959048740063286,7.443557730699056,40.51543018396143,-0.6326442812718994,1.6776843349615491,5.112276554414809,1.1701657381494792,-1.7254532997643843,-4.944656667657712,3.5945491996577634,-0.0419702580332574
0.0731290574579757,-4.309464371345204,-3.3184247100006594,-10.662936986434726,10.329388967116657,29.11132366108301,-4.2684959969694845,-3.08650987851842,1.49936164824003,0.2881422121770328,0.1914866624954843,-7.086490564065628,1.5522882389252288,0.1381275358186984
-0.687183035757472,-7.286084179352406,-0.2719523510507464,-10.149417046866024,9.168902310577144,4.364052187282548,-6.964722377516631,-8.755943958812727,-1.7809640308093897,1.0667213127921842,2.055415327373507,-8.03988251391755,2.299390347027375,3.438984759436506
-0.4472949091427221,-7.094654908449092,2.465624970249136,-6.278110483281397,6.367839087365688,-25.92297776628976,-10.86354314070293,-10.63805129941848,-3.747083289598412,2.5539072678323103,4.061845909195467,-5.421050328564721,1.731190495010373,5.771304521864279
0.6122704951332085,-4.809072626416256,3.5675058052377047,-0.8782275422597028,4.989850763972523,-48.80746402939992,-7.003392713824155,-6.960257017939199,-2.2989361152202146,6.447864416125151,6.323536093525655,0.3467115147882431,3.1083283944128093,7.151584720253672
2.1580698947417245,-1.7440186996425735,3.124906740256044,2.786430772616022,6.296682688856501,-54.697677931468455,0.1899666525185126,-0.31096691855209,0.8096517752771709,8.392441371464571,7.739429416757312,6.247698292270147,0.6008927476672449,4.407782355368074
4.645739638578274,1.407148446629563,2.328849156000949,2.9401373532038804,8.91298082957617,-43.532172232980514,4.958587080032167,4.504870475569913,3.9564766899270873,8.559799405317541,8.283014653177464,9.071451131430546,-4.560221622710018,-0.7082814261501195
5.7290092516808535,4.456339743403444,2.1506892442528667,0.905516340968216,10.183949812318607,-24.163891789906145,9.185310876850568,4.451572207857325,5.599326342102199,9.280520752543344,7.535815960653675,7.891980879249552,-6.151873407609214,-3.5768555216271465
5.324324642961294,7.188909168612447,2.385538694109705,-0.0816955432502979,8.460246138827618,-7.934202837769462,9.023572519095875,0.6697574237288393,3.542354488529757,9.74787459965309,5.1357200652921895,4.544038902698574,-4.471312053762826,-3.4016041707782936
5.167970593275536,9.142310418342332,2.0777168918880093,2.2789746919921114,4.411687596718252,-1.4935321062196714,5.508587705254275,-2.74248427387964,-0.7203400411144308,9.20674752624621,3.269586903600943,1.8708506341740327,-0.7103816894254261,-1.0355874565821463
4.753289861252796,9.868390118959624,0.8832654248861758,7.446924348640621,0.4480713598315802,-3.8011562750816914,3.019302181206952,-2.410496586356388,-4.716322853433876,7.78150586703853,1.8372875579305212,1.431490642439897,4.013383128356333,0.4123530340439196
4.867598565948974,9.287977532538164,-0.1622563435029604,12.664268000197636,-1.105402696658004,-8.69827602127032,1.839379332183159,1.4492468381101986,-6.535924996059625,5.299486813554626,2.132407020857602,2.615187247283963,5.424663973526393,-0.0420583045807663
5.786566170416653,7.719528249760316,0.5065503786971064,15.308509305638012,0.3874581139704318,-10.4714756902313,0.2251221050809689,5.388600469733667,-4.402021106320672,1.5647513533001036,4.828260937100739,3.656994422526005,2.901125227920896,-1.3181071741595165
5.969163661021664,5.60325901179651,3.208835911744842,14.768764793166111,3.5567364797968395,-8.116586243056318,-1.5414347950959129,5.8060071875494685,-0.6917162684210705,-1.2278953930468763,7.342995687768264,3.3797770586676705,0.2534299497730159,-3.5596207032692684
5.611715272550398,3.2899346868702537,6.173435294700781,12.395746022039257,6.030583282767871,-5.417659128266621,-3.124722626079743,1.9653897545292975,1.5913002188585057,-3.007041059634688,10.153420572591507,2.085179854392472,-1.5157293377205667,-3.3602513501595688
4.782091549502159,1.1039046325994375,6.770258286639795,9.982693723841043,5.984833472776643,-7.233348162977201,-4.507747253912933,-3.5147187563567144,1.6854257165381243,-2.5317055301333737,11.954465774615787,1.023008073700851,-1.7478738193406649,-1.1172090963417145
3.1793080552525472,-0.5519427534625905,3.9159631884693056,8.366520021428045,3.2661968748050185,-15.130855532459307,-2.273986172953953,-6.834723557703157,0.0059507200613228,0.9737223197768462,12.189893356062464,1.159776246257664,-0.3352054489515718,0.4451645737601218
1.9312231354136569,-1.379604168689923,-0.6089253169518969,7.2308596764488655,-0.5554748051525067,-25.765243531896672,2.4211741249828163,-5.83527698433344,-2.0070551184086174,4.289444318877703,11.222813080018838,2.403409093846051,-0.2198363450131481,2.1862040593690644
1.010352176935786,-1.5305780308618535,-3.3834585468451976,5.88820711086727,-3.237554859487986,-33.09612680396624,7.202172119408716,-1.2501935017440786,-1.5926360430511628,7.878070534134247,8.428913458944171,3.831534120979839,-1.6893211987854964,2.4533231673755047
1.7115856396756763,-1.5588171879070671,-2.2029346780312267,4.091343650017691,-3.383115902658417,-32.5663682870855,10.491858793372396,4.259005317304158,1.3311091763794851,10.284746527490771,6.27820956087927,4.555937475601581,-1.981231458766055,1.360105010555977
4.455317638255112,-1.7490813081725776,1.99295041006814,2.2434359276893616,-1.41450932267162,-24.075297389665764,10.593829668480284,8.174299268205658,4.032884620860397,10.755330473631082,4.745229058467992,4.436077759293696,-0.6791649711823697,0.9826525156752964
5.908963278675063,-1.476231814954886,5.943510906594071,1.082001560481899,0.7350725644117944,-11.791248576734604,9.400783839735192,9.626730016123275,5.529897182510888,10.816664965199172,5.143071043190865,4.122101126233488,1.3391855429264394,0.8788884012357734
6.331516622097842,0.417892754971561,6.9313393329148525,1.2161097928378837,1.042501361713562,-1.3103985424680076,7.708695572790599,9.430967260508451,5.141990549426037,9.808649133013065,8.25706942772249,4.472199866113613,4.5568950877950325,1.01993507151124
4.956552904108481,4.194868114510612,5.046400681513873,2.7326475194084736,-1.1294947884248927,3.650669696121099,6.104976177984923,8.947465545207137,2.1215838662906856,7.018298570658925,7.384082025597165,5.78346772492506,5.4837424080568,1.007972253173916
0.9366592187272904,8.134330691255911,2.7632545940745388,4.949268663363938,-4.629188398642924,2.981174538951564,3.338237725217442,8.793677357984663,-1.1516922240919696,2.389695672033364,2.649508002448961,7.337865477404733,2.8648961599138225,0.1389799581102857
-0.8274876436191196,9.349792277250373,2.306903397618484,6.509656774482082,-7.429185816164505,-0.3240526252564422,-0.916182925349428,8.356087424873266,-2.142436780250822,-1.0443001390660134,-4.994290908973396,7.589460798510032,0.5004439610002599,-0.6767697669925399
-0.5180101061973381,6.3169606480122695,3.40478332983227,6.048414504908877,-8.03436351040888,-2.17146192337566,-5.650743450874811,6.418315950623594,-3.6114543347979424,-3.233928486401749,-17.223451562876384,5.020310926993275,-3.6223166032522673,-1.675062087978344
-0.3840424360236814,0.8491545345378313,3.644899701412413,3.230212608737133,-6.283861576219735,0.3355164325093795,-8.870268946326979,2.433167637728772,-3.862449848104969,-4.227017491903239,-20.908152992375737,-0.6963662204115195,-6.701473350382534,-1.987697113804472
0.5758507954230232,-2.7765795131756903,1.10645729787133,-0.6321189266167124,-3.1392254566531648,7.280916811389943,-6.976143057296605,-2.5538453180056138,-1.9112048585619437,-3.1512512791559457,-15.379749272097762,-7.950847071350978,-5.164754859318135,-0.8816496675169838
0.2630153681928812,-1.316611557246418,-3.3482380304641026,-3.177094031517939,0.0665837585852813,15.561893184274709,-3.27431248467422,-6.206762836236365,-2.382732142505175,-3.489173037490675,-7.565566146722007,-13.613096299041516,-3.1777352190225643,-0.0837345197551658
-1.60720401610477,4.323960709022273,-6.497077902986817,-2.677731552633816,2.226995100262542,20.06009277627399,1.1751565807407744,-6.45313728049743,-0.4318431862198885,-5.112873668784702,5.811610894222393,-14.74277715781814,1.461090007555176,1.6067507925434386
-2.202341953161689,9.462546384257015,-5.682207908980104,0.4696901497884198,2.704253922482934,16.284653961224166,3.736631399751513,-3.2269514624236706,2.7246712450210437,-5.697419210228892,9.043252085004186,-10.682393254311748,6.180060341941262,3.0131999092055946
-1.936297364858496,9.559239181501653,-1.5275873432315237,3.8556905206636154,1.4731448408916208,3.5361585520872083,-0.1914528183689276,1.077484367712941,2.670686229318448,-5.868096661103557,0.4675705509010461,-3.957427465839473,5.40589934248797,2.3900533418405656
-3.0923890233502536,4.312861418646165,2.220292772483916,4.886905919992586,-0.7110375550935402,-13.384780080883203,-4.965428069989061,3.095269999946176,3.754549663682293,-6.442345393241321,-9.238944206254391,1.0568109516883268,2.548987213269208,1.4113367816535471
-5.359623273268444,-1.8700671015252648,1.7852137239076171,2.834410349403342,-2.4425815441175303,-25.868945220487987,-10.140609836467853,0.9932394356712564,2.466042639007072,-7.202352258589805,-24.18430595829573,1.0931097869511677,-1.5394752820495567,-0.7120375511963817
-7.846222602207078,-3.647363131768373,-3.313718243375895,-0.7205868151477048,-2.413155022478101,-26.527520410906703,-13.083231008538792,-3.96696900775202,-1.2558784785074246,-8.993465625077658,-30.26439946820385,-3.552276221702215,-4.636367395830205,-2.7257464547967887
-10.943072981899496,0.5546320498817039,-9.69468439903033,-3.418206078141296,-0.4418699587181081,-14.477865866042356,-8.89881938253235,-8.192127119814685,-2.643742933020707,-12.036719900568148,-25.44957628707137,-9.110025326396908,-3.2205670096821435,-2.911181129214575
-11.783246343485056,7.1591833935334535,-12.827918902865868,-4.13233284738579,2.1478828570684385,3.4567531714776223,-3.785226541420807,-8.406218699234422,-3.982725558428832,-14.40326809867767,-20.26326921034005,-11.113664079776832,-0.7223736345492409,-3.104807603729663
-10.029921389021998,10.635273748350375,-10.649901723354272,-3.57073403339054,3.414345272326802,17.408697761977884,2.438222592192739,-4.156801367252179,-4.981930777483104,-16.247934165728648,-10.860539392612276,-7.758900401313554,-0.8895064252862196,-3.619608491468964
-7.921415367859631,8.335979287668387,-5.009256031457042,-3.073944633668546,2.3967362647092685,21.764263571901203,7.160144393855313,1.8149163100153916,-3.612422960289323,-15.50717081903887,-6.418662018161813,-1.166375206156971,-2.6007122324859475,-3.2425009773700637
-4.70915378384414,2.579561219816433,0.0849542927168869,-3.058189159461641,0.0095463123071155,18.954349536932995,6.141102162354929,5.652269079303327,-1.6967357444845028,-11.525547167618676,-8.550308764423733,4.432693583297748,-3.5783584115211724,-2.0066135858163245
-1.7945371688188294,-1.7927867499124268,1.689381099159494,-2.775028704000565,-1.7145572292948683,16.17446976763086,5.337943898825046,5.274603358156956,0.343041750175407,-5.863175241262723,-9.403611443719235,6.027111594153141,-2.786790708430626,-0.082609143944519
0.4922417906621054,-1.92608232423078,-0.0881388595839993,-1.4886818320188606,-1.4486830458683038,17.852203069381986,3.926384349025448,1.825562488471209,4.398655668589905,2.2653631012972486,-11.489644270093583,3.947359312037903,2.519076025789105,3.2842568873863245
1.4872120961906328,0.7261697675549046,-2.6685983397580757,0.4148685463082031,0.2344094379479226,20.93326097498604,3.060860233826321,-1.391619929866993,6.549784886117262,5.570041428795008,-9.782250858904913,1.2149227228903134,8.196653745748728,5.017274279481689
0.5747221519244814,2.2443734209777784,-3.264330018085541,1.7038956847920457,1.47452247266976,17.708256901049666,5.297739290973956,-1.559224927563614,4.846154352628599,3.340607500755721,-3.066115270213828,0.9091611299452608,8.284464492188182,3.8432725284647007
-0.4101702037200178,0.193320999253526,-0.8825779660761484,1.6034097709014752,0.9668643373718844,3.793888763908935,6.477331222011952,1.560843511568109,3.1472901067245416,0.6935220395684519,4.05101304091826,3.811411377518059,5.435560589385084,3.5805988404744613
-1.8312952344187152,-4.210462589353309,3.221348121574444,0.5504601281310961,-0.7836017389673771,-16.2293565666547,7.800156426902532,5.668805952399271,-0.4021228191590155,-4.260089798966266,13.08349690519584,8.070030512250359,0.8255166189883174,3.64903290541902
-2.422005160821308,-7.577547977843615,6.5725931292498245,-0.4953460733185508,-2.045423947588443,-31.08612286647443,8.66151083730707,7.898727828733286,-3.150572263219798,-5.507499650436023,17.027757422882033,10.83452888768851,-3.0697881082397016,3.321550843980776
-1.772580703646505,-7.681403767378228,7.072382951479284,-1.3162894668150642,-1.6667152002698629,-31.31159905759817,7.539770610114727,6.9891224513843255,-1.7268211905939763,-2.1033958762765117,14.78894294757323,10.370485300681594,-3.3366452916004574,2.363166114850685
-1.902755518280751,-5.291961694358797,4.234088800140398,-2.657632616986625,-0.2440127015030171,-16.637972446710634,7.04178017057162,3.924543190980757,-1.2002561913427556,-0.7651139524036551,11.22457234643418,7.118952876016088,-0.6316783840486138,-1.0729786077630592
-2.447890679465881,-3.024815145545425,-0.4873595676991016,-5.014543462789966,0.5340166678982712,4.0049683367018645,5.763186227282251,0.7715312506702787,-1.1350663717517269,-0.0438392771875471,4.313715282200793,3.205604460536321,0.8098115880837485,-6.894265295987931
-1.9450833946007424,-2.806367751151882,-4.430583279170023,-7.419129734011847,-0.3433283345134441,19.542007557728358,4.1087746929034985,-1.0200993219568488,-0.8975152571374798,0.8758371970135544,2.003665073914121,0.9995227270799488,-0.4323836738512181,-9.960612017455103
-0.5839529940645856,-4.605387437702348,-5.239954380859814,-7.893970212549746,-2.1685204657464965,24.622369760896103,3.546859385849145,-1.3282705538099435,-2.097610980652657,1.0618437683143724,5.273159637043793,1.7199227232954684,-2.1133554808000943,-7.057637554532062
1.9430676712194948,-7.296002806120768,-2.347948264813567,-5.427740693208463,-3.247110236621026,21.98580410750453,2.0195025677760983,-0.7282390101936898,-1.7886378529960802,3.5624884398735355,9.554286323723824,4.818747367792895,-5.4463056300831685,-1.6978566020258197
5.986952874524512,-10.15045043007504,2.5860232892799786,-1.4215797390250202,-2.589074693453483,18.26955159817591,0.3069294202886722,0.4744855526944462,0.2194290114699889,8.455506687097904,17.073193509165442,8.35755845974154,-7.438937121767803,5.860635331676042
7.478731066932024,-13.101367849721145,6.733322927840717,1.2044029196971309,-0.8172030356015227,17.739949285238964,-1.3735061343193178,2.364876545824273,1.754729497389679,10.446117780868038,19.29956977720677,10.135468144643454,-5.7341773602774975,9.887815775988798
6.277371654525343,-15.695538508549674,7.990407793579848,0.6861675122532915,0.5429149474587405,19.4749492693022,-4.514643436825332,4.624799395335586,2.1662570602632245,9.846549881470644,15.387670394492556,8.974147482904925,-2.446677595487247,6.185556132786342
4.876620032762823,-16.351655244305164,6.298344428846349,-1.7385105672358208,0.5437448693880356,19.719159892772453,-7.820405504576935,5.932954545501588,0.9444268139233836,8.452472231113951,9.882981371328144,5.404761643036181,1.8895458970446413,0.994436074312648
2.3265670504852456,-13.210870944066215,3.378676982505283,-2.8500521637155884,-0.438503560285767,16.37641567229818,-11.255288780326705,4.592885950477793,-1.0661394475432315,5.143932985102307,0.4786625297760489,1.26293690828237,7.428687942770459,-4.685436638195286
0.7947145737582189,-5.997107331049705,1.1876114865414138,-0.5555259050626375,-1.278036587504289,11.189842526782655,-13.197926446415224,0.1087503701369314,-2.008437630508009,4.081736223815449,-2.803410575181487,-1.5917580723063909,10.14034530189308,-6.996662640005139
0.6559975694447808,2.9783584330150745,0.4437493364561362,3.907346429162459,-1.2161342175551226,7.923162002442297,-11.83485981627032,-5.787070441627691,-0.9424457179824766,5.573884747246005,0.9898362541472006,-2.5034192925483296,7.697670731010927,-3.0751874018794583
-1.2051579417090508,9.850322494043668,0.4064240049951593,6.917994384852648,-0.3928312543715151,8.770029993513702,-9.608752398157913,-9.933338785317003,1.610687814411594,6.255799104128849,3.167552030764909,-2.242592821679608,3.5492785419101693,0.7159527861127353
-4.330806164039841,11.577348058565631,-0.1214800406766585,5.753020238292265,0.5142680649217084,12.524905116230968,-5.860198096093041,-10.038351871449947,3.846581330502108,7.073389560809423,6.08612497462981,-2.1030006280639384,-3.0384694015438884,3.452112514895741
-5.93339516717015,7.808210336171612,-1.64520070748938,1.0722108312236005,0.948002496977665,15.895236707277604,-3.6209581501914654,-6.617393470587729,4.052134585134469,6.952548122628079,4.911430068408703,-2.741322460303365,-7.678876733905136,4.067151224878256
-6.322221490807186,0.930519955452354,-3.6946842061119582,-3.7204886445147167,0.7826034424332136,16.26849166718219,-5.379176187417714,-2.778589111305621,2.0988986088522514,5.391810537603338,-1.906178831537235,-3.8032391534328553,-4.917069885307755,1.4022176230343546
-5.895462085030535,-5.489649379792553,-5.429151685952263,-5.503015761929447,0.2392669103538196,13.338368467414,-6.708260517757632,-1.8361895669472403,-0.6278334406095154,3.9896690730785576,-4.9046157986928565,-4.540400850328069,-1.4390934511574405,-0.3543318976168123
-4.066873739268613,-8.640232109433214,-6.329190818113375,-3.899303244117021,-0.2728182021706971,8.685088387373554,-8.923355052260439,-4.679473888429442,-2.8776098702973485,2.36662909653642,-5.2424646982455885,-4.638835292685428,2.025417477606812,-1.0179875297910486
-2.622193954558895,-7.648691346981423,-6.313395692800924,-1.0294081786505558,-0.2748386961053484,4.422342356790324,-9.088848371313132,-9.141710711228654,-3.5331573513443004,1.3304283538370991,-4.441241563318524,-4.390387085525816,4.860809931992556,-1.1819666196760663
-1.5368875627748655,-3.659351379245095,-5.412075068616019,0.8045742755881804,0.5287407482913125,2.239162284363431,-4.4272850800556505,-11.897751024253608,-2.6907696657829314,1.173456215533137,-0.73327789121164,-4.173935764571581,2.459828064605158,-0.6550599742639239
0.8658711855103888,0.97494038275687,-3.605850181787332,1.0046764095403091,1.8598004716614296,2.91176466611114,0.4832874177547274,-11.173579887225458,-2.0740643968060586,0.9754696756007164,0.0569786071778534,-3.9738487358623615,-1.03620931061347,-1.3934293991789015
4.298321111325403,3.9711124152622688,-1.0843154432784274,0.4979739850748785,2.7483634159561348,5.657120515629856,7.116359079596927,-7.872007829803863,-2.1937464929222923,1.017809876339508,-2.1422699322975904,-3.496422519670176,-3.540500927999894,-3.120819599621155
5.49677244424344,4.33480298130641,1.4915747829659267,0.1989606674436004,2.0773789048304536,7.517226673019138,10.804897189229893,-4.277085859540307,-2.1043491135643286,0.4671252411546652,-1.8169705655452,-2.6387810427549425,-5.275237416742484,-3.829039506555575
4.433042093724042,2.849166601722885,3.241194087566015,0.03692185554425,-0.4552663549500551,4.004883673908097,9.707651257438105,-1.8100287921098184,-1.370909020096041,-0.8467991016921942,0.0056817063179474,-1.649651723304146,-4.221096366606162,-3.138490605836248
3.1490836949259964,1.3566772848702726,3.723339693460929,-0.5511534733726648,-3.797725418611094,-8.313254481363884,8.963264084842287,-0.0986673902403083,0.0380376240328686,-0.913989630853526,4.694338791595817,-0.7894528215051935,0.3558363819552087,-0.6749050829442329
0.909534394357114,1.162850941335563,3.307355150581998,-1.5832933359618266,-6.065838792499704,-28.650902734749536,5.196824381060353,1.890553505281332,3.215983632189721,0.1543544578216899,13.34872225922783,0.0023254000714985,5.912520611051901,3.3898046151345143
0.7927831633478121,1.7950494096514262,2.7891208803422103,-2.354344970290242,-5.838667893953925,-50.94745904119554,3.8419327480727703,4.138211679544924,5.562614965051727,0.6254938728566645,14.995107036320167,0.9299514165556388,8.1400785323257,5.906078308759878
3.268243797408476,1.336513440425449,2.620026359445092,-2.2889701536309985,-3.200467344975209,-66.49104840269098,5.192628327600422,5.332504090120267,4.908937554617261,0.8140955184603033,9.468136798526723,1.8665534332621403,5.681242694868361,5.587329662148342
4.239690061056439,-1.7267791590227262,2.583557557852018,-1.6766394759920331,0.3087114751699289,-68.88237637873338,3.245351968238253,4.44561171241881,3.3104741654279817,-1.607605969032429,2.0736870261792757,2.270436301778247,-0.7052783856529277,3.957319073686328
4.383599591403174,-6.740111152352355,2.250626926710453,-1.3218015000991985,2.748389567639606,-57.91477845486763,4.01571639907205,2.307151397032314,-0.7279632281694013,-7.191302528218105,-9.766535047548231,1.740520655356761,-8.419676348878143,1.326422639896646
3.9569509233514095,-10.963379231503922,1.6319461460965528,-1.5184601450462338,2.984674748227349,-39.5760334579501,2.6841182940036807,1.1713061019374609,-4.759337078347904,-9.981021849379228,-13.842293976558448,0.6012365630217857,-10.67145136964158,-1.2027176643316768
2.2436499447317435,-11.646206514135656,1.2107233118413774,-1.615940348560656,1.2363348118018678,-22.20832410660385,-1.7904089420074505,2.4029321895849165,-4.668496228583195,-10.31736648612688,-8.885316584797724,-0.2604416463677097,-5.419099049067476,-2.1387322996174087
1.3046312548470194,-8.263032706033549,1.2990214294483169,-0.7502337034393491,-1.2122288239505463,-11.580733777688934,-2.6190247551625285,4.633406562062277,-2.70435615469483,-7.997770111669307,-4.962463699579373,-0.2536637760046716,1.454937868457494,-1.8137081511059696
1.0468788474250073,-2.7974258490991986,1.534591670913052,1.0787515839671755,-2.7513758104107997,-8.19120323465578,-6.850495244332672,4.5934211625246135,0.793834559460928,-1.5489645106943375,0.92264986675155,0.2917890461568717,7.58422020874245,-2.2143821507481958
0.3775296356894046,2.17429003170648,1.2417501019432198,2.846916548994816,-2.201030069820046,-8.293068090225747,-9.417275281287749,0.2419291415083542,4.060031455890902,0.780633821979614,2.2131962996039185,0.4927435863379532,8.458713659533917,-2.3289703407907463
-0.3233195124058168,5.65494402976841,0.3481535260403454,3.494837680175352,0.6359264596284611,-7.440085096083855,-5.072024648603716,-6.685216223865955,3.354338979110264,-0.9765436369328204,-2.8245750737546174,-0.0768606634842008,2.601981235092674,-1.872544152164256
-0.0416659370458283,8.479552353798127,-0.2435914874289295,2.9896856271761045,4.743226613830796,-3.748255024510037,-3.303593177996185,-11.389004318969514,0.0027170293606931,-3.510521768179041,-5.217281398242031,-0.8664111374695835,-1.746497707610561,-3.1143779010666446
1.2325607940896377,11.519610841390644,0.5257046519231778,2.283636176936959,8.181457557975556,1.3539692188356938,1.3928052081309643,-9.77399378841148,-2.7754535132105764,-8.709955535508932,-6.732994163176478,-0.9673874110703408,-3.7010637657978727,-2.1940787201066088
1.8623909059874733,13.917507830521116,2.5476204581230206,2.215433712795516,8.997767667205693,4.977500993903689,6.422874145709892,-2.121484537923436,-3.4011652382332462,-9.295358167588024,-6.294737309899095,-0.242255610856148,-2.831593067915483,0.441027901832744
1.9872231438254804,13.44546707208525,4.157416762320608,2.572656054608217,6.401704315714923,5.368725059320681,2.1801133012628284,6.661901660559067,-1.1231516261260632,-4.663884305158064,-2.360651672815073,0.3093714431716279,0.9819947598862832,1.9599531515336843
-0.7175460788109591,8.823097085000313,3.361244202588608,2.365361406816021,1.4171880397281311,3.148381754588712,-0.7305328248331304,10.703121838882282,2.170862065040068,-1.4304391304566104,-1.2528528951864706,-0.5294114909420671,1.0955425501642686,3.089298041735872
-6.870780152717394,1.6334606446997384,-0.2689751375564526,1.0358282241339791,-3.617128203302997,0.5364384994858824,-3.272755842204863,7.814506932939423,2.682822369257293,2.02464954276627,-2.5216987186438677,-2.842163146951407,-1.001532527024544,0.7758314465466338
-8.838476235495047,-4.317915609356703,-4.818819124423044,-0.7107528760917887,-6.480292605034833,-0.4043943338402869,-7.925589954267511,1.2643233007783865,0.5886056491072281,3.3967986490728554,-2.8284822939033853,-5.185253487105058,-2.4065800981422405,-2.7455340825211376
-6.83399952839986,-5.885253599900466,-7.266113498045712,-1.410117799042098,-6.386804309649676,1.0025894415038863,-4.563728887641577,-2.862991078643006,-1.576348022143731,1.5432391088772033,-3.2770160088334164,-5.649076873421905,-2.7232670545867568,-2.6354050301202263
-1.7781840577337111,-3.117008949343756,-5.790812044426218,-0.2424269659759375,-4.17822096806907,4.003214332836762,0.0743712053303182,-0.5848217219826211,-2.0333546097570308,4.046484634845703,-0.3536688127653636,-3.457211259443397,0.9083386587962043,1.1119539500831437
8.22716553044459,0.9310881428402809,-1.2105498326316138,2.071173638951848,-1.3465043524752218,7.1326931052551,1.7756086805890978,6.799588983269757,0.7173896892933739,10.462782674278928,6.631658882199822,0.3218724271941369,5.468727893440895,8.740710081443055
11.003480996027962,2.959942205632842,3.6384712842654494,3.827003324860698,1.1406975371279486,8.989206611305065,5.082800805378008,13.819715322654131,4.052466777604017,12.726253524012854,8.98966740430848,3.5227749161014685,6.459077513254436,13.525589390329552
6.11148205360887,2.238116265547376,5.967819810618835,3.859604893745484,3.1755708439598607,8.752826328907531,3.5303903937519845,15.22079255740448,4.090620758458653,11.829690330249186,7.155166064822891,4.357392674985988,3.675954709543563,9.22480628438921
0.2833035595840862,0.9387098456701324,4.815945552962319,2.5627968643916006,4.898311361843184,6.475999045201604,-1.32152317659084,9.962930341365336,1.7461113722656552,5.9480403649574765,3.1985311431755186,2.3885686844728866,-1.357764018284736,1.0699965187015643
-9.370280430295452,1.819845695196591,1.273095047884226,1.4189104527505378,5.994013650601232,3.08559365485678,-3.3623218640998918,1.6456970006649954,-1.8847569427803623,-6.825120047479318,-4.826794092969839,-1.5646919338381622,-5.972045287566905,-9.35037251034771
-12.87812728675843,5.481534556938868,-2.6786231529517863,1.480499722192235,5.766796838799678,-0.076841658799367,-5.156950193667847,-4.705074708251004,-4.881412063276613,-12.522579598033888,-7.190317624907275,-6.165637139621026,-6.717182470890862,-15.42955250825089
-8.991971402577132,9.70961372568388,-5.539549079089511,2.251089938027121,3.9423419160184494,-2.0536480357548044,-5.155098126925741,-6.534964124661315,-4.632024806735102,-11.260657163610524,-3.3994216770115884,-10.175997978622718,-3.5928322972589566,-11.258626618261664
-6.399468975763492,11.406012602309602,-6.891541651201123,2.0347259360557928,1.2834458080263855,-2.831308931276453,-2.335792515230586,-5.078031232435933,-2.902168081595295,-8.480452286955032,-0.3677214028669817,-12.647910283659144,-0.2730996460723441,-5.773144041907639
-2.6165778789653475,9.261513230528864,-7.128849764101233,-0.5288300880145016,-0.7827832651080371,-3.1209493729804763,-0.6703875387953646,-3.3523540897543853,-2.0966792625506576,-0.9749703672484348,4.116262848881616,-12.95792784536104,2.182393648126357,-1.1681325346091
-0.0320080717223901,4.782708722011648,-6.856539496137884,-5.073441302400738,-1.3229380949353526,-3.501803466547244,0.740326347548268,-3.0553798014750555,-1.13822117343275,2.402803725741155,5.439364553406292,-10.97027812277804,2.8640497381221666,2.353392302125158
0.1435854646034091,0.906063499928905,-6.439724260347589,-9.442903344008757,-0.7578182179925079,-3.743743536099714,3.917615490681981,-3.2947257327268744,-0.0239791471930114,1.0378137206911118,2.4697870631954517,-7.208677404318905,1.4073037142743372,2.123821108783809
2.229950890420397,-0.4020927578440023,-5.826592176078066,-11.031749419639029,-0.5013321308779268,-3.0190759695950646,6.931664662798096,-2.066558236146648,0.1130254918845143,0.0153405910479252,2.259861603444564,-2.7096421841848723,0.0505643277569254,2.120507977298888
5.424920478943879,0.5582081101373433,-4.606979181031647,-8.544471207094148,-1.580070087890931,-0.8391249336501687,10.733246881347258,1.2927405199363875,2.1994602162908024,-2.829791559113624,3.6966430953449567,1.468722223568534,-1.3934408790641144,5.633741382220032
6.865886372626906,1.9366105172932748,-2.326990356721126,-2.9421756270319293,-3.4802834237502798,2.2267279759390703,13.226810707922452,5.228001581865328,3.8854225052532896,-2.8869470534340667,5.556942611168818,4.688990450738288,-2.5277259879146583,7.242394624596529
6.957709542674668,2.134537859316424,0.987712679038168,3.0441982806387387,-4.393543223304505,4.852998085724494,10.907833387990594,7.452306592649847,3.096719763605118,0.4829084251424363,9.00788277925482,6.7647331415432745,-1.56440153917173,4.81439487825985
6.76691133891068,1.01674956147815,4.436701916019956,6.514654937616569,-2.7993596516157595,6.099529262220358,7.403518400784831,7.174703588328612,4.20992416429294,4.366296362172243,9.792273271011656,7.688846417938294,1.389784308434059,3.0742754042588656
5.7936406784182495,-0.3260831026327651,6.464526389952255,6.110705633864711,0.9833923058400842,6.323309946305756,2.5082933445224582,5.768346076732996,3.992373006777517,10.02256096759633,7.742975617673658,7.500066798601324,6.024158470656352,-2.493693371815665
5.397676780995252,-0.7506811125728632,5.814132836363626,2.7571643506983605,4.764491962529519,6.921503303782231,-0.6152188842811002,5.231880716887133,2.035244099716717,10.329484966637514,5.414456589766699,6.477726307271553,8.678416474177382,-6.6067280840523495
5.751936171945864,-0.0277686100398568,2.630789534645942,-1.0451146771828237,6.1587410840980965,9.06740164041878,1.2984849563794336,6.04757267267496,1.141016192892158,4.483692448865843,1.832870216999764,5.330280692359338,6.096236868600048,-3.5778818226858697
5.528226271492359,1.0853756421502112,-1.229767990432265,-2.8911689730059607,4.568990211411801,12.632772790684385,2.992415290264684,6.632669259965041,-2.089295860227489,-0.8744167923830329,-1.3305589045154325,4.93037732154562,-0.1140914461430975,-2.365619366498298
5.047199261023335,1.5178376985469413,-3.173738546193136,-1.9330586176282625,1.6900974506188504,16.379778874427757,5.766852532911868,4.963506342578057,-5.165355645806737,-7.4610571655064,-3.749784644757273,5.66549650581544,-8.206884141768333,1.0634860929436252
4.508861766543551,0.7067744078062788,-1.5816917995005042,0.8712230460857882,0.0163789121606896,19.244185430275024,6.928041822723334,0.776367234550321,-4.986404044989232,-8.281684699230585,-5.798225915656632,7.030945121418654,-11.7499721604788,4.154192457321062
3.751762727429104,-0.9656700785672,2.9934604207384155,3.7461288549689016,0.6314183962106199,21.344830265153405,3.541411681603685,-3.832432312334959,-3.800060245790373,-1.7679140662533086,-6.903989456160524,7.977649062701403,-7.541136082743382,0.6759152857969252
2.8599723781774955,-2.3871352518514186,8.114116815838088,5.380272769679209,2.235428862353956,23.54048941463168,1.2257766020194223,-6.034263437855543,-2.323672720724577,1.658093980401108,-6.294571029250797,7.7812467292922065,-1.562963363360263,-0.7331015790828658
1.820962308894372,-2.5315163649047463,11.078965734819008,5.482885004587047,2.291850083739291,25.87775024119844,-2.356714171047104,-4.6141344735899565,-1.3022441807399423,3.7027431772452606,-3.654119809737836,6.622245822223704,4.426871003197055,-2.4865046578643875
1.5047626336405722,-1.3981749595851625,10.68094584650828,4.444388090303391,-0.6709647279913042,26.632592165605047,-5.763051864912277,-0.8790366843990114,-1.4684346842011,4.884744192139823,-0.4218529536072691,5.327962405879589,6.678550110589582,-3.660100897447682
2.009956209364624,-0.263873503091304,7.820426685401912,2.784644402417939,-5.555776429863386,23.315259978279983,-5.198513235189353,2.6082019613412517,-1.5859467085101957,3.376982988109825,3.6774053831760174,4.571030889660506,2.8563987731962714,-0.3032031120026401
1.7891204416778763,-0.7315527185952533,4.628388218043938,1.045335632744127,-9.27424298522294,15.105330541718502,-6.12132529601229,4.164495386714407,-0.1540031905730519,5.878813374354417,3.967862567833468,4.337798671921519,-0.0136513967664924,0.3896893086926107
0.9828738576271376,-3.1264090603707477,2.897916951432421,-0.010703860745366,-8.999519644322277,4.536946021819404,-6.870779938278282,3.997531623210193,2.666218960591604,12.261861612007417,-0.264335919088434,4.13584827469208,-1.8408777117624584,0.4698630629444578
-1.7256439779645156,-5.750186835110071,3.0194632802960086,0.4226466612605009,-4.37188336925135,-3.3950222457259542,-4.6419867122798415,3.352219750711356,4.435894483926421,13.18360503471492,-3.714918789551935,3.606089740144853,-3.283708221683557,0.3612395998467863
-6.821661626802936,-6.12403438658464,4.028285714800688,2.3904263802412515,2.02891923778958,-4.356449883440519,-4.044592922119307,2.9109344494223706,4.428036191699068,9.405886749576268,-7.545046882528389,2.8300926173437237,-1.618490347768747,-1.10365390479285
-10.92512179959066,-3.5215229878408536,4.44688222429545,4.469625704758869,6.335565077652689,2.35068213612567,-2.434810715009667,2.1696361272632885,4.225000179129507,3.757170294727503,-5.910710438604733,2.0376082745392523,1.0067113368385892,2.359330606489858
-14.328072956140794,-0.4487021642193554,3.174225531509535,4.211885174659415,5.996529113153713,13.323306392689515,2.410085270985753,0.3367908581707866,3.8251052162229935,-5.665584554192648,2.5836343951773038,1.1196542730399417,5.289710965512521,7.034163980137886
-16.36394494993051,-1.1877004874584145,-0.0513474144242422,-0.1204279184912024,1.4564994885109286,23.44360351984335,3.029187608040309,-2.3631225544233985,3.112652737951271,-9.143863768808917,3.464628082581537,-0.4329309778316315,9.903471702418344,8.657914980474485
-16.204110279751582,-8.111083352396747,-4.601137706124291,-7.763279537423898,-4.27047001593553,29.23438240256047,2.7779643767297832,-4.514119509535874,2.2913455226361226,-5.933598039061335,-2.374361953759614,-3.021376725896289,10.265723796899646,7.908742795439511
-17.73272986182457,-18.883079483701977,-9.152544801256198,-15.28060458680426,-7.742889006027383,30.704992799317157,4.859804115870996,-4.754173803541761,-0.8028187421476726,-4.742998596125513,-13.162262978662756,-6.344877618156204,3.329580946414485,-0.3608993488276448
